39 1001
F. Obersteiner; A. Zahn; florian.obersteiner@kit.edu
Institute of Meteorology and Climate Research (IMK), Karlsruhe Institute of Technology (KIT), 76021 Karlsruhe, P.O. Box 3640, Germany
1 | HALO | FAIRO | Ozone measured with the dual-beam UV-photometer from the FAIRO instrument onboard of the HALO research aircraft
HALO campaign PHILEAS; University of Mainz, Mainz, Germany
1 1
2023 09 22 2024 05 03
0
Mid_UTC; time; [s] # seconds after midnight on the experiment date
2
1 1
-9999 -9999
O3; mole_fraction_of_ozone_in_air; [ppb]
O3_unc; standard_error_of_mole_fraction_of_ozone_in_air; [ppb]
9
Flight: Solingen
Platform: HALO
Instrument: FAIRO-1
FileName: PHILEAS_F19_2023-09-22_HALO_FAIRO_O3_V02.ames
FAIROmeta_version: 0.1.8, https://gitlab.kit.edu/FObersteiner/FAIROmeta, DOI: 10.5281/zenodo.11104076
FAIROpro_version: 0.4.1, https://gitlab.kit.edu/FObersteiner/FAIROpro, DOI: 10.5281/zenodo.11104018
FAIROpro_cfgfile: 2023-09-22_F19_Solingen_FAIROpro.toml
Exceptions To Consider: No
ChangeLog: V01 - initial release, preliminary data. V02 - revised, final data.
14
Ozone mixing ratio calculation:
UV photometer -> ozone absorption cross section and temperature dependence taken from Barnes & Mauersberger 1987, DOI: 10.1029/JD092iD12p14861.
Chemiluminescence detector -> sensitivity derived from UV photometer data.
Independent variable:
UV photometer timestamp denotes the mid of the sampling interval (2 seconds).
Chemiluminescence detector timestamp denotes the end of the sampling interval (1/12.5 seconds).
Instrument time is synchronized to the IWG1 string timestamp on the aircraft LAN unless noted otherwise (see SCOM, 'Exceptions To Consider').
Sample lag time from inlet to detector is not taken into account.
Detection limits and measurement uncertainty:
Approximate detection limits: LLOD 3 ppb, ULOD 5000 ppb. Use 3x LLOD for the limit of quantification (9 ppb).
Uncertainty is estimated to be at least 1 ppb OR 2.1% for the UV photometer and 2.6% combined for the chemiluminescence detector. Use whatever value is larger.
time	mole_fraction_of_ozone_in_air	standard_error_of_mole_fraction_of_ozone_in_air
1	1e-9	1e-9
Mid_UTC	O3	O3_unc
79237.7	39.7	1.00
79241.7	39.4	1.00
79245.7	39.4	1.00
79249.7	40.0	1.00
79253.7	41.3	1.00
79257.7	43.7	1.00
79261.7	46.4	1.00
79265.7	47.2	1.00
79269.7	44.2	1.00
79273.7	40.3	1.00
79277.7	40.8	1.00
79281.7	44.2	1.00
79285.7	45.9	1.00
79289.7	45.3	1.00
79293.7	43.9	1.00
79297.7	43.2	1.00
79301.7	43.0	1.00
79305.7	43.1	1.00
79309.7	42.9	1.00
79313.7	42.8	1.00
79317.7	43.0	1.00
79321.7	43.3	1.00
79325.7	43.4	1.00
79329.7	43.5	1.00
79333.7	43.4	1.00
79337.7	42.8	1.00
79341.7	42.6	1.00
79345.7	43.2	1.00
79349.7	45.7	1.00
79353.7	48.9	1.03
79357.7	48.4	1.02
79361.7	45.6	1.00
79365.7	44.0	1.00
79369.7	44.0	1.00
79373.7	44.4	1.00
79377.7	44.9	1.00
79381.7	45.7	1.00
79385.7	48.6	1.02
79389.7	56.8	1.19
79393.7	67.0	1.41
79397.7	71.6	1.50
79401.7	69.8	1.47
79405.7	65.1	1.37
79409.7	62.5	1.31
79413.7	66.7	1.40
79417.7	74.6	1.57
79421.7	78.2	1.64
79425.7	78.2	1.64
79429.7	77.7	1.63
79433.7	74.9	1.57
79437.7	69.4	1.46
79441.7	65.8	1.38
79445.7	65.2	1.37
79449.7	66.0	1.39
79453.7	66.8	1.40
79457.7	66.9	1.41
79461.7	67.2	1.41
79465.7	67.8	1.42
79469.7	67.9	1.43
79473.7	67.3	1.41
79477.7	65.8	1.38
79481.7	63.9	1.34
79485.7	63.3	1.33
79489.7	64.8	1.36
79493.7	64.8	1.36
79497.7	62.9	1.32
79501.7	61.9	1.30
79505.7	62.7	1.32
79509.7	63.0	1.32
79513.7	62.2	1.31
79517.7	61.5	1.29
79521.7	61.0	1.28
79525.7	60.4	1.27
79529.7	60.3	1.27
79533.7	60.6	1.27
79537.7	60.8	1.28
79541.7	60.6	1.27
79545.7	60.7	1.27
79549.7	60.7	1.28
79553.7	60.3	1.27
79557.7	58.9	1.24
79561.7	58.0	1.22
79565.7	58.4	1.23
79569.7	59.5	1.25
79573.7	60.4	1.27
79577.7	60.4	1.27
79581.7	60.0	1.26
79585.7	62.9	1.32
79589.7	71.4	1.50
79593.7	80.2	1.68
79597.7	83.4	1.75
79601.7	82.4	1.73
79605.7	80.4	1.69
79609.7	79.1	1.66
79613.7	79.2	1.66
79617.7	79.1	1.66
79621.7	78.0	1.64
79625.7	78.0	1.64
79629.7	78.4	1.65
79633.7	78.7	1.65
79637.7	78.5	1.65
79641.7	77.8	1.63
79645.7	76.0	1.60
79649.7	73.6	1.55
79653.7	71.7	1.51
79657.7	69.5	1.46
79661.7	67.4	1.41
79665.7	68.4	1.44
79669.7	69.5	1.46
79673.7	65.8	1.38
79677.7	61.6	1.29
79681.6	64.3	1.35
79685.6	69.8	1.47
79689.7	72.7	1.53
79693.7	73.9	1.55
79697.7	72.8	1.53
79701.7	69.6	1.46
79705.6	68.1	1.43
79709.7	67.6	1.42
79713.7	66.7	1.40
79717.7	65.9	1.38
79721.7	64.9	1.36
79725.7	62.6	1.31
79729.7	60.3	1.27
79733.7	58.9	1.24
79737.7	57.3	1.20
79741.7	55.8	1.17
79745.6	55.3	1.16
79749.7	55.3	1.16
79753.6	55.8	1.17
79757.7	56.0	1.17
79761.7	55.8	1.17
79765.6	55.4	1.16
79769.6	54.9	1.15
79773.6	53.9	1.13
79777.6	53.4	1.12
79781.6	56.2	1.18
79785.6	61.6	1.29
79789.7	64.4	1.35
79793.6	65.5	1.38
79797.6	65.7	1.38
79801.7	68.1	1.43
79805.6	73.9	1.55
79809.6	77.2	1.62
79813.7	77.4	1.63
79817.7	78.6	1.65
79821.7	80.6	1.69
79825.6	83.1	1.74
79829.6	85.4	1.79
79833.6	87.4	1.84
79837.6	88.8	1.87
79841.6	89.2	1.87
79845.6	88.5	1.86
79849.6	86.8	1.82
79853.6	84.6	1.78
79857.6	84.0	1.77
79861.6	84.2	1.77
79865.6	84.3	1.77
79869.6	84.5	1.77
79873.6	87.1	1.83
79877.6	91.5	1.92
79881.6	93.7	1.97
79885.7	91.9	1.93
79889.6	88.6	1.86
79893.6	87.0	1.83
79897.6	86.7	1.82
79901.6	84.7	1.78
79905.6	82.2	1.73
79909.6	81.1	1.70
79913.6	81.6	1.71
79917.6	82.0	1.72
79921.6	81.1	1.70
79925.6	79.7	1.67
79929.6	79.3	1.67
79933.6	79.1	1.66
79937.6	79.2	1.66
79941.7	79.6	1.67
79945.6	79.7	1.67
79949.6	80.0	1.68
79953.7	81.6	1.71
79957.6	85.1	1.79
79961.6	89.7	1.88
79965.6	92.9	1.95
79969.6	92.6	1.94
79973.6	90.6	1.90
79977.6	89.7	1.88
79981.7	89.3	1.87
79985.6	88.7	1.86
79989.6	88.1	1.85
79993.6	87.7	1.84
79997.6	87.4	1.84
80001.6	87.1	1.83
80005.6	86.7	1.82
80009.6	87.1	1.83
80013.6	87.3	1.83
80017.6	87.7	1.84
80021.6	90.0	1.89
80025.6	94.0	1.97
80029.6	97.7	2.05
80033.7	101.8	2.14
80037.6	106.2	2.23
80041.6	109.4	2.30
80045.6	111.5	2.34
80049.6	112.6	2.36
80053.6	113.8	2.39
80057.6	116.4	2.44
80061.6	119.3	2.51
80065.6	121.8	2.56
80069.6	124.0	2.60
80073.6	126.0	2.65
80077.6	126.9	2.66
80081.6	128.0	2.69
80085.6	129.4	2.72
80089.6	130.1	2.73
80093.6	130.7	2.74
80097.6	132.7	2.79
80101.6	135.0	2.84
80105.6	137.0	2.88
80109.6	139.0	2.92
80113.6	141.5	2.97
80117.6	143.1	3.00
80121.6	144.0	3.02
80125.6	144.9	3.04
80129.6	146.6	3.08
80133.6	150.6	3.16
80137.6	157.1	3.30
80141.6	161.1	3.38
80145.6	161.9	3.40
80149.6	162.3	3.41
80153.6	164.0	3.44
80157.6	165.7	3.48
80161.6	167.3	3.51
80165.6	168.0	3.53
80169.6	168.2	3.53
80173.6	168.3	3.53
80177.6	169.4	3.56
80181.6	171.5	3.60
80185.6	174.4	3.66
80189.6	175.0	3.68
80193.6	174.0	3.65
80197.6	173.4	3.64
80201.6	173.4	3.64
80205.6	174.1	3.66
80209.6	176.9	3.71
80213.6	180.3	3.79
80217.6	181.9	3.82
80221.6	182.1	3.82
80225.6	182.7	3.84
80229.5	183.1	3.84
80233.6	183.5	3.85
80237.6	184.0	3.86
80241.6	186.0	3.91
80245.6	188.8	3.96
80249.6	192.5	4.04
80253.6	197.1	4.14
80257.6	201.8	4.24
80261.6	204.8	4.30
80265.5	207.5	4.36
80269.5	210.7	4.42
80273.6	214.4	4.50
80277.6	218.1	4.58
80281.6	220.3	4.63
80285.6	220.4	4.63
80289.5	220.5	4.63
80293.6	220.3	4.63
80297.5	221.4	4.65
80301.6	223.9	4.70
80305.5	226.4	4.76
80309.5	228.1	4.79
80313.6	230.3	4.84
80317.6	232.6	4.89
80321.6	235.6	4.95
80325.6	239.6	5.03
80329.6	245.2	5.15
80333.6	250.6	5.26
80337.6	254.3	5.34
80341.6	251.9	5.29
80345.6	241.9	5.08
80349.6	229.2	4.81
80353.6	222.3	4.67
80357.6	223.7	4.70
80361.6	236.5	4.97
80365.6	255.3	5.36
80369.6	269.0	5.65
80373.6	276.9	5.81
80377.6	284.3	5.97
80381.6	291.0	6.11
80385.6	293.7	6.17
80389.6	291.2	6.12
80393.6	288.9	6.07
80397.6	288.2	6.05
80401.6	288.7	6.06
80405.6	288.8	6.07
80409.6	289.7	6.08
80413.6	291.1	6.11
80417.6	293.0	6.15
80421.6	293.8	6.17
80425.6	294.6	6.19
80429.6	295.2	6.20
80433.6	295.9	6.21
80437.6	295.7	6.21
80441.6	295.7	6.21
80445.6	295.2	6.20
80449.6	295.0	6.20
80453.6	294.8	6.19
80457.6	295.0	6.20
80461.6	294.8	6.19
80465.6	294.9	6.19
80469.6	295.2	6.20
80473.6	296.0	6.22
80477.6	296.2	6.22
80481.6	296.2	6.22
80485.6	295.3	6.20
80489.6	295.0	6.19
80493.6	294.1	6.18
80497.6	293.5	6.16
80501.5	293.1	6.16
80505.5	293.1	6.16
80509.5	292.9	6.15
80513.5	292.9	6.15
80517.6	292.3	6.14
80521.6	290.6	6.10
80525.5	288.0	6.05
80529.6	288.2	6.05
80533.5	289.6	6.08
80537.6	290.8	6.11
80541.6	291.1	6.11
80545.6	290.9	6.11
80549.6	290.6	6.10
80553.5	291.2	6.12
80557.6	291.3	6.12
80561.5	291.6	6.12
80565.6	292.2	6.14
80569.6	293.1	6.16
80573.5	293.2	6.16
80577.5	293.6	6.17
80581.5	293.7	6.17
80585.5	293.8	6.17
80589.5	293.5	6.16
80593.6	294.1	6.18
80597.5	294.6	6.19
80601.5	295.0	6.19
80605.5	292.7	6.15
80609.5	288.6	6.06
80613.5	285.1	5.99
80617.5	282.9	5.94
80621.6	280.5	5.89
80625.5	278.4	5.85
80629.5	276.5	5.81
80633.5	276.5	5.81
80637.5	276.8	5.81
80641.6	276.1	5.80
80645.5	272.6	5.72
80649.5	268.7	5.64
80653.5	265.4	5.57
80657.5	263.0	5.52
80661.5	260.1	5.46
80665.5	257.7	5.41
80669.5	255.8	5.37
80673.5	254.0	5.33
80677.5	252.6	5.30
80681.5	253.5	5.32
80685.5	255.3	5.36
80689.5	259.3	5.44
80693.5	265.8	5.58
80697.5	271.9	5.71
80701.5	275.2	5.78
80705.5	276.9	5.81
80709.5	277.1	5.82
80713.5	276.7	5.81
80717.5	276.8	5.81
80721.5	280.2	5.88
80725.5	284.2	5.97
80729.5	287.4	6.04
80733.5	291.6	6.12
80737.5	297.5	6.25
80741.5	302.8	6.36
80745.5	305.7	6.42
80749.5	305.8	6.42
80753.5	306.1	6.43
80757.5	307.4	6.45
80761.5	309.7	6.50
80765.5	310.2	6.51
80769.5	309.9	6.51
80773.5	309.6	6.50
80777.5	311.1	6.53
80781.5	315.5	6.63
80785.5	323.5	6.79
80789.5	329.0	6.91
80793.5	330.1	6.93
80797.5	329.4	6.92
80801.5	329.5	6.92
80805.5	329.6	6.92
80809.5	330.3	6.94
80813.5	330.8	6.95
80817.5	331.6	6.96
80821.5	332.2	6.98
80825.5	333.2	7.00
80829.5	333.7	7.01
80833.5	334.3	7.02
80837.5	334.4	7.02
80841.5	334.0	7.01
80845.5	332.6	6.98
80849.5	331.9	6.97
80853.5	331.5	6.96
80857.5	331.2	6.96
80861.5	330.7	6.94
80865.5	330.5	6.94
80869.5	330.2	6.93
80873.5	330.8	6.95
80877.5	331.1	6.95
80881.5	331.0	6.95
80885.5	330.2	6.93
80889.5	329.6	6.92
80893.4	328.0	6.89
80897.4	326.9	6.86
80901.4	325.7	6.84
80905.4	325.7	6.84
80909.4	326.9	6.87
80913.5	328.7	6.90
80917.5	328.9	6.91
80921.5	328.7	6.90
80925.5	328.0	6.89
80929.4	327.8	6.88
80933.4	327.5	6.88
80937.4	327.6	6.88
80941.4	328.7	6.90
80945.4	330.6	6.94
80949.4	330.9	6.95
80953.5	331.5	6.96
80957.4	331.8	6.97
80961.5	331.4	6.96
80965.5	330.0	6.93
80969.4	328.6	6.90
80973.5	327.0	6.87
80977.4	327.1	6.87
80981.4	328.4	6.90
80985.4	330.2	6.93
80989.4	330.3	6.94
80993.4	328.8	6.91
80997.4	325.4	6.83
81001.4	321.5	6.75
81005.4	319.3	6.71
81009.4	320.8	6.74
81013.4	321.6	6.75
81017.4	321.1	6.74
81021.4	320.4	6.73
81025.4	320.0	6.72
81029.4	318.9	6.70
81033.4	320.2	6.72
81037.4	323.1	6.78
81041.4	324.7	6.82
81045.4	323.8	6.80
81049.4	321.8	6.76
81053.4	319.1	6.70
81057.4	318.1	6.68
81061.4	318.1	6.68
81065.4	318.7	6.69
81069.4	318.5	6.69
81073.4	318.8	6.69
81077.4	318.9	6.70
81081.4	320.7	6.74
81085.4	323.0	6.78
81089.5	323.5	6.79
81093.4	322.2	6.77
81097.4	323.9	6.80
81101.4	328.6	6.90
81105.4	334.4	7.02
81109.4	339.9	7.14
81113.4	344.3	7.23
81117.4	344.4	7.23
81121.4	343.0	7.20
81125.4	341.1	7.16
81129.4	338.2	7.10
81133.4	333.0	6.99
81137.4	329.0	6.91
81141.4	327.8	6.88
81145.4	330.6	6.94
81149.4	336.1	7.06
81153.4	340.7	7.15
81157.4	339.5	7.13
81161.4	336.4	7.06
81165.4	336.9	7.07
81169.4	339.1	7.12
81173.4	338.4	7.11
81177.4	336.2	7.06
81181.4	332.6	6.98
81185.4	330.5	6.94
81189.4	329.0	6.91
81193.4	328.4	6.90
81197.4	327.9	6.89
81201.4	327.5	6.88
81205.4	325.9	6.84
81209.4	324.6	6.82
81213.4	323.6	6.80
81217.4	323.4	6.79
81221.4	323.4	6.79
81225.4	324.3	6.81
81229.4	323.8	6.80
81233.4	323.3	6.79
81237.4	322.3	6.77
81241.4	321.2	6.74
81245.4	320.2	6.73
81249.4	320.3	6.73
81253.4	321.0	6.74
81257.4	323.1	6.78
81261.4	326.1	6.85
81265.4	330.1	6.93
81269.4	331.7	6.97
81273.4	331.6	6.96
81277.4	330.9	6.95
81281.4	333.6	7.00
81285.4	338.3	7.10
81289.4	340.5	7.15
81293.4	339.1	7.12
81297.4	337.9	7.10
81301.4	335.3	7.04
81305.4	329.9	6.93
81309.4	323.4	6.79
81313.4	319.4	6.71
81317.4	318.1	6.68
81321.4	318.8	6.69
81325.4	318.3	6.68
81329.4	317.7	6.67
81333.4	317.2	6.66
81337.4	317.2	6.66
81341.4	317.2	6.66
81345.4	317.7	6.67
81349.4	316.9	6.65
81353.4	316.4	6.64
81357.4	316.5	6.65
81361.4	316.6	6.65
81365.4	316.2	6.64
81369.4	317.0	6.66
81373.4	318.3	6.68
81377.4	320.8	6.74
81381.4	323.6	6.79
81385.4	326.1	6.85
81389.4	325.8	6.84
81393.4	327.9	6.89
81397.4	332.8	6.99
81401.4	333.3	7.00
81405.4	329.6	6.92
81409.4	328.1	6.89
81413.4	328.1	6.89
81417.4	330.3	6.94
81421.4	332.5	6.98
81425.4	331.1	6.95
81429.4	328.2	6.89
81433.4	328.6	6.90
81437.4	327.7	6.88
81441.4	325.1	6.83
81445.4	323.3	6.79
81449.4	322.9	6.78
81453.4	322.2	6.77
81457.4	321.6	6.75
81461.4	321.6	6.75
81465.4	322.9	6.78
81469.4	323.1	6.79
81473.4	325.6	6.84
81477.4	328.1	6.89
81481.3	328.3	6.89
81485.4	328.1	6.89
81489.3	328.0	6.89
81493.3	328.1	6.89
81497.3	330.6	6.94
81501.3	331.7	6.97
81505.3	329.9	6.93
81509.3	326.0	6.85
81513.3	324.6	6.82
81517.3	325.7	6.84
81521.3	325.5	6.84
81525.3	321.0	6.74
81529.3	318.0	6.68
81533.3	318.1	6.68
81537.4	320.4	6.73
81541.4	321.7	6.76
81545.3	320.4	6.73
81549.3	318.0	6.68
81553.3	317.7	6.67
81557.4	317.9	6.68
81561.4	318.5	6.69
81565.4	319.3	6.70
81569.4	320.4	6.73
81573.4	321.4	6.75
81577.4	322.6	6.77
81581.4	322.0	6.76
81585.4	319.0	6.70
81589.4	314.5	6.61
81593.4	313.0	6.57
81597.4	312.7	6.57
81601.4	313.2	6.58
81605.4	314.4	6.60
81609.4	316.0	6.64
81613.4	315.8	6.63
81617.4	316.1	6.64
81621.4	318.3	6.68
81625.4	321.8	6.76
81629.4	324.1	6.81
81633.4	326.2	6.85
81637.4	326.2	6.85
81641.4	324.2	6.81
81645.4	322.1	6.76
81649.4	322.7	6.78
81653.4	324.2	6.81
81657.4	324.3	6.81
81661.4	321.8	6.76
81665.4	321.5	6.75
81669.4	321.4	6.75
81673.4	319.8	6.72
81677.4	317.3	6.66
81681.4	316.5	6.65
81685.4	317.0	6.66
81689.4	319.7	6.71
81693.4	321.7	6.76
81697.4	322.5	6.77
81701.4	321.9	6.76
81705.4	325.1	6.83
81709.4	331.5	6.96
81713.4	333.0	6.99
81717.4	327.5	6.88
81721.4	323.6	6.79
81725.4	322.7	6.78
81729.4	324.0	6.80
81733.4	324.4	6.81
81737.4	324.6	6.82
81741.4	325.2	6.83
81745.4	325.9	6.84
81749.4	325.0	6.83
81753.4	325.5	6.83
81757.4	326.3	6.85
81761.3	327.5	6.88
81765.4	328.5	6.90
81769.4	330.5	6.94
81773.4	332.9	6.99
81777.4	336.7	7.07
81781.4	339.9	7.14
81785.4	342.5	7.19
81789.4	345.1	7.25
81793.4	347.7	7.30
81797.4	348.0	7.31
81801.4	348.8	7.33
81805.4	349.3	7.33
81809.4	350.1	7.35
81813.4	350.5	7.36
81817.4	350.6	7.36
81821.3	349.0	7.33
81825.4	345.1	7.25
81829.4	338.6	7.11
81833.3	334.9	7.03
81837.4	333.6	7.01
81841.4	334.1	7.02
81845.4	334.6	7.03
81849.4	335.6	7.05
81853.4	335.8	7.05
81857.3	336.5	7.07
81861.4	337.4	7.09
81865.3	340.4	7.15
81869.4	344.1	7.23
81873.3	346.6	7.28
81877.3	346.3	7.27
81881.3	344.8	7.24
81885.4	341.0	7.16
81889.3	337.0	7.08
81893.3	333.0	6.99
81897.3	331.0	6.95
81901.4	330.2	6.94
81905.3	330.4	6.94
81909.3	329.4	6.92
81913.3	328.7	6.90
81917.3	328.2	6.89
81921.3	328.1	6.89
81925.3	326.9	6.86
81929.3	326.5	6.86
81933.4	326.4	6.85
81937.3	326.0	6.85
81941.3	325.0	6.83
81945.3	325.3	6.83
81949.3	325.8	6.84
81953.3	327.1	6.87
81957.3	326.8	6.86
81961.3	325.3	6.83
81965.3	323.6	6.79
81969.3	322.9	6.78
81973.3	322.1	6.77
81977.3	322.4	6.77
81981.3	322.8	6.78
81985.3	324.0	6.80
81989.3	324.6	6.82
81993.3	325.1	6.83
81997.3	325.0	6.83
82001.3	324.7	6.82
82005.3	323.8	6.80
82009.3	324.0	6.80
82013.3	323.0	6.78
82017.3	321.2	6.75
82021.3	319.4	6.71
82025.3	318.6	6.69
82029.3	317.0	6.66
82033.3	315.1	6.62
82037.3	312.8	6.57
82041.3	311.6	6.54
82045.3	310.6	6.52
82049.3	310.6	6.52
82053.3	310.6	6.52
82057.3	311.0	6.53
82061.3	310.8	6.53
82065.3	311.0	6.53
82069.3	310.9	6.53
82073.3	311.5	6.54
82077.3	312.0	6.55
82081.3	313.3	6.58
82085.3	313.7	6.59
82089.3	313.9	6.59
82093.3	313.6	6.59
82097.3	313.8	6.59
82101.3	314.9	6.61
82105.3	316.6	6.65
82109.3	317.6	6.67
82113.3	319.0	6.70
82117.3	319.9	6.72
82121.3	321.5	6.75
82125.3	322.6	6.78
82129.3	323.8	6.80
82133.3	324.2	6.81
82137.3	324.0	6.80
82141.3	326.3	6.85
82145.3	334.6	7.03
82149.3	343.3	7.21
82153.3	350.9	7.37
82157.3	355.4	7.46
82161.3	356.9	7.50
82165.3	356.2	7.48
82169.3	357.7	7.51
82173.3	362.9	7.62
82177.3	366.9	7.70
82181.3	364.3	7.65
82185.3	358.2	7.52
82189.3	351.2	7.38
82193.3	353.5	7.42
82197.3	364.0	7.64
82201.3	371.3	7.80
82205.3	372.3	7.82
82209.3	372.2	7.82
82213.3	370.9	7.79
82217.3	369.5	7.76
82221.3	369.3	7.76
82225.3	371.7	7.81
82229.3	372.7	7.83
82233.3	372.5	7.82
82237.3	372.2	7.82
82241.3	371.1	7.79
82245.3	367.3	7.71
82249.3	363.7	7.64
82253.3	360.7	7.57
82257.3	360.1	7.56
82261.3	362.3	7.61
82265.3	367.9	7.73
82269.3	371.6	7.80
82273.3	372.2	7.82
82277.3	368.8	7.75
82281.3	365.6	7.68
82285.3	365.8	7.68
82289.3	369.5	7.76
82293.3	372.2	7.82
82297.3	373.2	7.84
82301.3	372.8	7.83
82305.3	373.4	7.84
82309.3	373.7	7.85
82313.3	374.5	7.86
82317.3	374.7	7.87
82321.3	375.4	7.88
82325.3	375.7	7.89
82329.3	375.9	7.89
82333.3	375.1	7.88
82337.3	375.4	7.88
82341.3	375.6	7.89
82345.3	376.1	7.90
82349.3	376.1	7.90
82353.3	376.3	7.90
82357.2	375.3	7.88
82361.3	375.1	7.88
82365.3	374.7	7.87
82369.3	375.1	7.88
82373.2	375.4	7.88
82377.2	376.8	7.91
82381.3	376.7	7.91
82385.3	376.0	7.90
82389.3	374.5	7.86
82393.3	374.1	7.86
82397.3	374.2	7.86
82401.3	375.2	7.88
82405.3	375.5	7.89
82409.3	375.8	7.89
82413.3	375.4	7.88
82417.3	375.8	7.89
82421.2	375.9	7.89
82425.2	376.1	7.90
82429.2	375.4	7.88
82433.3	375.5	7.88
82437.2	375.7	7.89
82441.3	376.4	7.90
82445.3	376.3	7.90
82449.3	376.8	7.91
82453.3	376.7	7.91
82457.3	377.0	7.92
82461.2	376.8	7.91
82465.2	377.6	7.93
82469.2	377.8	7.93
82473.2	378.3	7.95
82477.2	378.3	7.94
82481.2	378.5	7.95
82485.2	377.7	7.93
82489.2	377.7	7.93
82493.3	377.8	7.93
82497.2	378.9	7.96
82501.2	378.8	7.95
82505.2	378.6	7.95
82509.2	377.9	7.93
82513.3	377.8	7.93
82517.2	377.7	7.93
82521.2	378.3	7.94
82525.2	378.5	7.95
82529.2	379.0	7.96
82533.2	379.0	7.96
82537.2	380.0	7.98
82541.2	380.6	7.99
82545.2	381.3	8.01
82549.2	382.0	8.02
82553.2	383.3	8.05
82557.2	383.3	8.05
82561.2	383.5	8.05
82565.2	383.2	8.05
82569.2	383.5	8.05
82573.2	383.9	8.06
82577.2	385.0	8.08
82581.2	384.9	8.08
82585.2	385.0	8.08
82589.2	384.8	8.08
82593.2	385.3	8.09
82597.2	385.4	8.09
82601.2	386.0	8.11
82605.2	386.1	8.11
82609.2	387.2	8.13
82613.2	388.1	8.15
82617.2	389.0	8.17
82621.2	389.3	8.18
82625.2	390.1	8.19
82629.2	390.4	8.20
82633.2	391.3	8.22
82637.2	391.3	8.22
82641.2	391.7	8.23
82645.2	391.5	8.22
82649.2	392.0	8.23
82653.2	392.1	8.23
82657.2	392.3	8.24
82661.2	391.5	8.22
82665.2	391.6	8.22
82669.2	391.9	8.23
82673.2	393.6	8.27
82677.2	395.6	8.31
82681.2	399.2	8.38
82685.2	403.1	8.46
82689.2	407.4	8.56
82693.2	410.3	8.62
82697.2	413.2	8.68
82701.2	414.0	8.69
82705.2	413.8	8.69
82709.2	413.7	8.69
82713.2	412.2	8.66
82717.2	407.6	8.56
82721.2	405.6	8.52
82725.2	405.2	8.51
82729.2	404.8	8.50
82733.2	403.8	8.48
82737.2	404.1	8.49
82741.2	403.4	8.47
82745.2	402.4	8.45
82749.2	401.2	8.43
82753.2	402.4	8.45
82757.2	403.8	8.48
82761.2	405.2	8.51
82765.2	405.1	8.51
82769.2	406.6	8.54
82773.2	409.2	8.59
82777.2	411.3	8.64
82781.2	411.5	8.64
82785.2	413.0	8.67
82789.2	414.0	8.69
82793.2	415.8	8.73
82797.2	417.3	8.76
82801.2	422.5	8.87
82805.2	430.6	9.04
82809.2	434.9	9.13
82813.2	436.7	9.17
82817.2	442.9	9.30
82821.2	446.2	9.37
82825.2	445.9	9.36
82829.2	443.8	9.32
82833.2	443.7	9.32
82837.2	444.2	9.33
82841.2	445.0	9.35
82845.2	444.9	9.34
82849.2	445.2	9.35
82853.2	445.2	9.35
82857.2	445.7	9.36
82861.2	444.6	9.34
82865.2	444.4	9.33
82869.2	443.5	9.31
82873.2	443.3	9.31
82877.2	444.1	9.33
82881.2	447.4	9.39
82885.2	452.8	9.51
82889.2	459.0	9.64
82893.2	462.1	9.70
82897.2	465.5	9.78
82901.2	468.0	9.83
82905.2	468.2	9.83
82909.2	466.1	9.79
82913.2	466.0	9.79
82917.2	467.3	9.81
82921.2	468.9	9.85
82925.2	468.8	9.84
82929.2	469.8	9.87
82933.2	469.6	9.86
82937.2	468.9	9.85
82941.2	469.7	9.86
82945.2	472.3	9.92
82949.2	472.8	9.93
82953.2	473.2	9.94
82957.2	472.4	9.92
82961.1	472.4	9.92
82965.2	473.2	9.94
82969.2	477.4	10.02
82973.1	478.9	10.06
82977.1	476.1	10.00
82981.2	472.1	9.91
82985.2	471.5	9.90
82989.2	472.5	9.92
82993.2	473.7	9.95
82997.2	472.2	9.92
83001.2	471.3	9.90
83005.2	470.7	9.89
83009.2	470.5	9.88
83013.2	468.7	9.84
83017.2	464.6	9.76
83021.2	459.3	9.64
83025.2	457.9	9.62
83029.1	457.7	9.61
83033.1	460.6	9.67
83037.2	466.0	9.79
83041.2	468.3	9.83
83045.2	467.4	9.81
83049.2	470.4	9.88
83053.2	473.3	9.94
83057.2	471.7	9.90
83061.1	467.9	9.83
83065.2	468.0	9.83
83069.2	467.6	9.82
83073.1	468.4	9.84
83077.2	470.9	9.89
83081.1	470.9	9.89
83085.1	468.7	9.84
83089.1	469.4	9.86
83093.1	468.9	9.85
83097.1	469.1	9.85
83101.1	468.7	9.84
83105.1	466.5	9.80
83109.1	463.9	9.74
83113.1	464.2	9.75
83117.1	463.4	9.73
83121.1	460.5	9.67
83125.1	455.9	9.57
83129.2	453.4	9.52
83133.1	451.8	9.49
83137.1	450.3	9.46
83141.1	447.4	9.40
83145.1	446.2	9.37
83149.1	444.7	9.34
83153.1	444.1	9.33
83157.1	444.3	9.33
83161.1	445.8	9.36
83165.1	445.8	9.36
83169.1	445.0	9.35
83173.1	442.8	9.30
83177.1	441.9	9.28
83181.1	439.8	9.24
83185.1	437.9	9.20
83189.1	436.9	9.18
83193.1	438.9	9.22
83197.1	439.0	9.22
83201.1	438.1	9.20
83205.1	434.6	9.13
83209.1	428.9	9.01
83213.1	427.1	8.97
83217.1	431.7	9.07
83221.1	434.4	9.12
83225.1	434.5	9.12
83229.1	432.7	9.09
83233.1	431.8	9.07
83237.1	430.3	9.04
83241.1	429.8	9.03
83245.1	429.3	9.01
83249.1	430.5	9.04
83253.1	432.6	9.09
83257.1	435.0	9.13
83261.1	436.1	9.16
83265.1	437.1	9.18
83269.1	437.2	9.18
83273.1	437.0	9.18
83277.1	436.4	9.17
83281.1	437.1	9.18
83285.1	436.4	9.16
83289.1	436.1	9.16
83293.1	435.6	9.15
83297.1	436.2	9.16
83301.1	435.7	9.15
83305.1	435.2	9.14
83309.1	434.8	9.13
83313.1	435.2	9.14
83317.1	435.0	9.13
83321.1	435.3	9.14
83325.1	434.8	9.13
83329.1	434.7	9.13
83333.1	434.1	9.12
83337.1	433.9	9.11
83341.1	433.5	9.10
83345.1	433.1	9.10
83349.1	432.4	9.08
83353.1	433.1	9.09
83357.0	433.3	9.10
83361.1	433.9	9.11
83365.0	433.4	9.10
83369.0	432.8	9.09
83373.0	432.1	9.07
83377.0	432.7	9.09
83381.0	434.3	9.12
83385.0	438.3	9.20
83389.0	441.0	9.26
83393.0	440.4	9.25
83397.0	435.0	9.14
83401.0	431.6	9.06
83405.0	431.2	9.06
83409.0	432.9	9.09
83413.0	435.9	9.15
83417.0	438.3	9.20
83421.0	437.4	9.19
83425.0	435.9	9.15
83429.0	435.9	9.15
83433.0	438.9	9.22
83437.0	441.6	9.27
83441.0	444.9	9.34
83445.0	448.5	9.42
83449.0	451.9	9.49
83453.0	453.0	9.51
83457.0	455.0	9.56
83461.0	454.7	9.55
83465.0	452.1	9.49
83469.0	449.8	9.45
83473.0	449.6	9.44
83477.0	449.5	9.44
83481.0	450.0	9.45
83485.0	449.1	9.43
83489.0	448.7	9.42
83493.0	448.4	9.42
83497.0	451.9	9.49
83501.0	454.9	9.55
83505.0	452.4	9.50
83509.0	449.1	9.43
83513.0	449.1	9.43
83517.0	448.6	9.42
83521.0	449.1	9.43
83525.0	448.8	9.43
83529.0	448.1	9.41
83533.0	447.9	9.41
83537.0	449.9	9.45
83541.0	450.5	9.46
83545.0	449.7	9.44
83549.0	450.1	9.45
83553.0	453.3	9.52
83557.0	457.2	9.60
83561.0	460.6	9.67
83565.0	459.1	9.64
83569.0	459.7	9.65
83573.0	464.4	9.75
83577.0	471.7	9.91
83581.0	479.5	10.07
83585.0	483.6	10.15
83589.0	483.6	10.16
83593.0	484.0	10.16
83597.0	483.4	10.15
83601.0	483.0	10.14
83605.0	481.9	10.12
83609.0	481.8	10.12
83613.0	481.5	10.11
83617.0	481.1	10.10
83621.0	480.9	10.10
83625.0	482.1	10.12
83629.0	482.2	10.13
83633.0	482.6	10.13
83637.0	482.5	10.13
83641.0	482.1	10.12
83645.0	481.6	10.11
83649.0	482.3	10.13
83653.0	482.6	10.13
83657.0	482.1	10.12
83661.0	480.6	10.09
83665.0	480.4	10.09
83669.0	477.6	10.03
83673.0	473.1	9.94
83677.0	470.5	9.88
83681.0	470.9	9.89
83685.0	471.3	9.90
83689.0	472.0	9.91
83693.0	472.7	9.93
83697.0	474.7	9.97
83701.0	476.1	10.00
83705.0	477.8	10.03
83709.0	477.7	10.03
83713.0	477.1	10.02
83717.0	478.2	10.04
83721.0	480.9	10.10
83725.0	480.3	10.09
83729.0	476.5	10.01
83733.0	470.5	9.88
83737.0	467.3	9.81
83741.0	466.8	9.80
83745.0	466.5	9.80
83749.0	462.6	9.71
83753.0	455.3	9.56
83757.0	445.6	9.36
83761.0	441.7	9.28
83765.0	443.4	9.31
83769.0	442.5	9.29
83773.0	436.7	9.17
83777.0	433.4	9.10
83781.0	434.0	9.11
83785.0	436.1	9.16
83789.0	435.3	9.14
83793.0	431.0	9.05
83797.0	425.7	8.94
83801.0	421.0	8.84
83805.0	414.8	8.71
83809.0	410.6	8.62
83813.0	408.0	8.57
83817.0	407.0	8.55
83821.0	407.7	8.56
83825.0	410.6	8.62
83829.0	413.7	8.69
83833.0	414.9	8.71
83837.0	408.5	8.58
83841.0	399.3	8.39
83845.0	391.5	8.22
83849.0	388.2	8.15
83853.0	389.2	8.17
83857.0	387.6	8.14
83861.0	382.8	8.04
83865.0	378.6	7.95
83869.0	372.8	7.83
83873.0	367.2	7.71
83877.0	367.2	7.71
83881.0	366.7	7.70
83885.0	354.1	7.44
83889.0	342.7	7.20
83893.0	338.8	7.11
83897.0	339.7	7.13
83901.0	347.9	7.31
83905.0	342.0	7.18
83909.0	310.2	6.51
83913.0	292.5	6.14
83917.0	291.3	6.12
83921.0	287.4	6.04
83925.0	289.5	6.08
83928.9	301.3	6.33
83933.0	325.2	6.83
83936.9	362.4	7.61
83940.9	395.0	8.30
83944.9	412.4	8.66
83948.9	416.1	8.74
83952.9	420.4	8.83
83956.9	426.4	8.95
83960.9	427.0	8.97
83964.9	428.4	9.00
83968.9	434.5	9.12
83972.9	438.0	9.20
83977.0	439.8	9.23
83980.9	440.5	9.25
83984.9	441.8	9.28
83988.9	441.7	9.28
83993.0	441.9	9.28
83996.9	437.5	9.19
84000.9	428.8	9.01
84004.9	424.9	8.92
84008.9	427.8	8.98
84012.9	432.0	9.07
84016.9	432.9	9.09
84020.9	424.4	8.91
84024.9	416.8	8.75
84028.9	409.7	8.60
84032.9	397.2	8.34
84036.9	388.5	8.16
84040.9	388.9	8.17
84044.9	390.5	8.20
84048.9	386.8	8.12
84052.9	377.4	7.93
84056.9	373.1	7.83
84060.9	371.5	7.80
84064.9	367.5	7.72
84068.9	362.8	7.62
84072.9	353.8	7.43
84076.9	339.2	7.12
84080.9	331.5	6.96
84084.9	329.9	6.93
84088.9	330.2	6.93
84092.9	330.9	6.95
84096.9	331.5	6.96
84100.9	331.6	6.96
84104.9	331.7	6.97
84108.9	330.7	6.94
84112.9	329.0	6.91
84116.9	327.8	6.88
84120.9	327.8	6.88
84124.9	326.3	6.85
84128.9	324.8	6.82
84132.9	321.1	6.74
84136.9	316.3	6.64
84140.9	314.6	6.61
84144.9	315.0	6.61
84148.9	313.0	6.57
84152.9	311.0	6.53
84156.9	310.8	6.53
84160.9	311.7	6.55
84164.9	307.1	6.45
84168.9	299.2	6.28
84172.9	293.9	6.17
84176.9	292.3	6.14
84180.9	291.6	6.12
84184.9	291.4	6.12
84188.9	291.0	6.11
84192.9	290.2	6.10
84196.9	287.9	6.05
84200.9	285.8	6.00
84204.9	282.8	5.94
84208.9	279.3	5.87
84212.9	273.7	5.75
84216.9	265.1	5.57
84220.9	256.9	5.39
84224.9	253.4	5.32
84228.9	252.0	5.29
84232.9	251.2	5.28
84236.9	250.3	5.26
84240.9	249.7	5.24
84244.9	249.2	5.23
84248.9	248.9	5.23
84252.9	248.3	5.21
84256.9	248.1	5.21
84260.9	247.4	5.20
84264.9	246.7	5.18
84268.9	245.7	5.16
84272.9	245.1	5.15
84276.9	244.6	5.14
84280.9	244.2	5.13
84284.9	243.7	5.12
84288.9	243.8	5.12
84292.9	243.5	5.11
84296.9	243.1	5.10
84300.9	242.2	5.09
84304.9	242.1	5.09
84308.9	242.6	5.09
84312.9	243.7	5.12
84316.9	243.9	5.12
84320.9	243.3	5.11
84324.9	242.2	5.09
84328.9	241.7	5.08
84332.9	241.6	5.07
84336.9	242.2	5.09
84340.9	242.3	5.09
84344.9	242.3	5.09
84348.9	241.8	5.08
84352.9	241.6	5.07
84356.9	241.2	5.07
84360.9	242.4	5.09
84364.9	245.1	5.15
84368.9	246.4	5.18
84372.9	244.3	5.13
84376.9	241.4	5.07
84380.9	239.9	5.04
84384.9	239.9	5.04
84388.9	239.5	5.03
84392.9	239.4	5.03
84396.9	239.3	5.03
84400.9	239.5	5.03
84404.9	239.2	5.02
84408.9	239.3	5.03
84412.9	239.2	5.02
84416.9	239.4	5.03
84420.9	239.3	5.03
84424.8	239.1	5.02
84428.9	239.0	5.02
84432.9	239.4	5.03
84436.9	238.9	5.02
84440.9	238.9	5.02
84444.9	238.8	5.01
84448.9	238.3	5.00
84452.9	237.7	4.99
84456.9	238.0	5.00
84460.9	237.6	4.99
84464.9	236.5	4.97
84468.9	236.1	4.96
84472.9	237.4	4.98
84476.9	237.6	4.99
84480.8	236.9	4.98
84484.8	237.3	4.98
84488.8	239.4	5.03
84492.8	240.0	5.04
84496.8	239.1	5.02
84500.8	237.6	4.99
84504.8	237.1	4.98
84508.9	236.8	4.97
84512.8	236.5	4.97
84516.8	235.4	4.94
84520.8	234.7	4.93
84524.8	233.9	4.91
84528.8	233.2	4.90
84532.8	232.5	4.88
84536.8	232.0	4.87
84540.8	231.2	4.85
84544.8	232.0	4.87
84548.8	233.7	4.91
84552.8	236.1	4.96
84556.8	239.2	5.02
84560.8	242.6	5.09
84564.8	244.3	5.13
84568.8	245.1	5.15
84572.8	246.2	5.17
84576.8	248.3	5.21
84580.8	248.8	5.23
84584.8	247.6	5.20
84588.8	245.6	5.16
84592.8	246.5	5.18
84596.8	248.8	5.22
84600.8	249.4	5.24
84604.8	248.2	5.21
84608.8	248.3	5.21
84612.8	249.6	5.24
84616.9	251.2	5.28
84620.8	253.9	5.33
84624.8	259.0	5.44
84628.8	262.0	5.50
84632.8	264.7	5.56
84636.8	271.9	5.71
84640.8	283.5	5.95
84644.8	292.2	6.14
84648.8	296.1	6.22
84652.8	298.5	6.27
84656.8	303.2	6.37
84660.8	308.2	6.47
84664.8	312.7	6.57
84668.8	316.8	6.65
84672.8	322.2	6.77
84676.8	325.7	6.84
84680.8	326.2	6.85
84684.8	323.8	6.80
84688.8	319.5	6.71
84692.8	315.5	6.63
84696.8	313.7	6.59
84700.8	310.7	6.52
84704.8	307.3	6.45
84708.8	305.5	6.42
84712.8	307.4	6.45
84716.8	313.0	6.57
84720.8	325.4	6.83
84724.8	343.3	7.21
84728.8	359.4	7.55
84732.8	367.2	7.71
84736.8	373.2	7.84
84740.8	382.4	8.03
84744.8	404.0	8.48
84748.8	433.9	9.11
84752.8	451.3	9.48
84756.8	454.2	9.54
84760.8	455.2	9.56
84764.8	455.7	9.57
84768.8	457.5	9.61
84772.8	459.7	9.65
84776.8	463.3	9.73
84780.8	464.8	9.76
84784.8	463.5	9.73
84788.8	458.0	9.62
84792.8	448.1	9.41
84796.8	437.2	9.18
84800.8	430.4	9.04
84804.8	424.9	8.92
84808.8	418.0	8.78
84812.8	410.1	8.61
84816.8	402.6	8.46
84820.8	393.9	8.27
84824.8	388.4	8.16
84828.8	386.8	8.12
84832.8	387.3	8.13
84836.8	387.3	8.13
84840.8	387.9	8.15
84844.8	388.6	8.16
84848.8	390.1	8.19
84852.8	391.2	8.22
84856.8	392.1	8.24
84860.8	392.3	8.24
84864.8	392.7	8.25
84868.8	393.3	8.26
84872.8	394.5	8.28
84876.8	395.7	8.31
84880.8	398.5	8.37
84884.8	399.1	8.38
84888.8	399.7	8.39
84892.8	408.5	8.58
84896.8	424.7	8.92
84900.8	435.3	9.14
84904.8	438.9	9.22
84908.8	438.3	9.20
84912.8	433.2	9.10
84916.8	418.7	8.79
84920.8	401.1	8.42
84924.8	394.9	8.29
84928.8	388.3	8.15
84932.8	358.7	7.53
84936.8	325.7	6.84
84940.8	312.8	6.57
84944.8	317.8	6.67
84948.8	348.4	7.32
84952.8	397.9	8.36
84956.8	427.4	8.98
84960.8	436.3	9.16
84964.8	439.4	9.23
84968.8	438.6	9.21
84972.8	414.9	8.71
84976.8	358.2	7.52
84980.8	307.5	6.46
84984.8	302.7	6.36
84988.8	323.5	6.79
84992.8	320.3	6.73
84996.8	289.5	6.08
85000.8	265.3	5.57
85004.8	257.5	5.41
85008.8	256.7	5.39
85012.8	253.9	5.33
85016.8	251.9	5.29
85020.8	254.8	5.35
85024.8	258.9	5.44
85028.7	258.2	5.42
85032.8	256.3	5.38
85036.7	254.7	5.35
85040.7	255.9	5.37
85044.8	270.4	5.68
85048.8	295.0	6.20
85052.8	308.4	6.48
85056.8	316.0	6.64
85060.8	328.3	6.89
85064.8	341.2	7.17
85068.8	351.7	7.39
85072.8	354.4	7.44
85076.8	350.6	7.36
85080.8	349.5	7.34
85084.8	348.3	7.31
85088.8	346.6	7.28
85092.8	344.1	7.23
85096.7	341.3	7.17
85100.7	343.1	7.20
85104.7	348.6	7.32
85108.7	349.3	7.34
85112.7	349.7	7.34
85116.7	352.6	7.41
85120.8	357.2	7.50
85124.8	363.8	7.64
85128.7	371.2	7.79
85132.7	374.4	7.86
85136.7	375.4	7.88
85140.8	376.7	7.91
85144.8	382.5	8.03
85148.7	392.6	8.25
85152.7	399.6	8.39
85156.7	395.2	8.30
85160.7	389.3	8.17
85164.7	388.7	8.16
85168.7	387.9	8.15
85172.7	383.7	8.06
85176.8	380.7	7.99
85180.7	376.4	7.90
85184.8	370.3	7.78
85188.8	364.1	7.65
85192.7	360.8	7.58
85196.7	359.1	7.54
85200.7	358.7	7.53
85204.7	357.6	7.51
85208.7	357.1	7.50
85212.7	355.2	7.46
85216.7	353.0	7.41
85220.7	351.1	7.37
85224.7	350.0	7.35
85228.7	348.5	7.32
85232.7	348.3	7.31
85236.7	348.6	7.32
85240.7	348.6	7.32
85244.7	346.8	7.28
85248.7	345.5	7.26
85252.7	344.2	7.23
85256.7	343.3	7.21
85260.7	342.6	7.19
85264.7	342.7	7.20
85268.7	342.2	7.19
85272.7	342.0	7.18
85276.7	341.4	7.17
85280.7	341.6	7.17
85284.7	341.4	7.17
85288.7	341.5	7.17
85292.8	341.5	7.17
85296.7	342.0	7.18
85300.7	342.1	7.18
85304.7	344.3	7.23
85308.7	347.6	7.30
85312.7	352.9	7.41
85316.7	359.0	7.54
85320.7	366.1	7.69
85324.7	371.8	7.81
85328.7	376.6	7.91
85332.7	383.1	8.05
85336.7	391.0	8.21
85340.7	396.5	8.33
85344.7	400.3	8.41
85348.7	401.3	8.43
85352.7	403.1	8.46
85356.7	405.0	8.50
85360.7	408.8	8.58
85364.7	413.4	8.68
85368.7	416.9	8.75
85372.7	418.1	8.78
85376.7	419.5	8.81
85380.7	419.3	8.80
85384.7	419.9	8.82
85388.7	420.4	8.83
85392.7	421.1	8.84
85396.7	421.6	8.85
85400.7	423.4	8.89
85404.7	424.9	8.92
85408.7	426.9	8.97
85412.7	427.8	8.98
85416.7	427.7	8.98
85420.7	426.1	8.95
85424.7	425.0	8.93
85428.7	423.4	8.89
85432.7	422.7	8.88
85436.7	422.1	8.86
85440.7	422.2	8.87
85444.7	423.3	8.89
85448.7	425.9	8.94
85452.7	425.9	8.94
85456.7	425.0	8.93
85460.7	426.7	8.96
85464.7	432.3	9.08
85468.7	434.9	9.13
85472.7	436.5	9.17
85476.7	438.4	9.21
85480.7	437.2	9.18
85484.7	432.5	9.08
85488.7	432.2	9.08
85492.7	434.7	9.13
85496.7	440.8	9.26
85500.7	449.2	9.43
85504.7	455.5	9.57
85508.7	457.7	9.61
85512.7	459.8	9.66
85516.7	461.5	9.69
85520.7	464.3	9.75
85524.7	465.7	9.78
85528.7	466.8	9.80
85532.7	467.3	9.81
85536.7	467.5	9.82
85540.7	465.0	9.76
85544.7	463.6	9.73
85548.7	463.0	9.72
85552.7	464.0	9.74
85556.7	465.1	9.77
85560.7	466.9	9.80
85564.7	467.0	9.81
85568.7	467.2	9.81
85572.7	465.4	9.77
85576.7	463.9	9.74
85580.7	460.9	9.68
85584.7	457.8	9.61
85588.7	455.5	9.57
85592.7	454.8	9.55
85596.7	452.8	9.51
85600.7	451.0	9.47
85604.7	448.0	9.41
85608.7	445.6	9.36
85612.7	442.0	9.28
85616.7	437.1	9.18
85620.7	433.1	9.09
85624.7	429.4	9.02
85628.7	422.2	8.87
85632.7	417.7	8.77
85636.7	415.7	8.73
85640.7	413.6	8.69
85644.7	409.8	8.61
85648.7	408.7	8.58
85652.7	411.2	8.63
85656.7	414.9	8.71
85660.7	415.9	8.73
85664.7	416.1	8.74
85668.7	413.8	8.69
85672.7	410.0	8.61
85676.7	407.3	8.55
85680.7	406.8	8.54
85684.7	405.8	8.52
85688.7	404.8	8.50
85692.7	402.7	8.46
85696.7	401.0	8.42
85700.7	397.7	8.35
85704.7	394.2	8.28
85708.6	392.5	8.24
85712.7	393.4	8.26
85716.6	393.7	8.27
85720.6	394.6	8.29
85724.6	395.3	8.30
85728.6	396.5	8.33
85732.7	397.3	8.34
85736.7	398.4	8.37
85740.7	398.6	8.37
85744.7	399.4	8.39
85748.7	399.6	8.39
85752.7	400.1	8.40
85756.7	400.0	8.40
85760.7	400.8	8.42
85764.6	401.3	8.43
85768.6	402.0	8.44
85772.6	402.1	8.44
85776.6	402.4	8.45
85780.6	401.9	8.44
85784.7	402.6	8.46
85788.6	403.7	8.48
85792.6	405.0	8.50
85796.7	405.2	8.51
85800.6	406.0	8.53
85804.6	406.6	8.54
85808.7	407.8	8.56
85812.6	407.9	8.57
85816.6	408.5	8.58
85820.6	408.8	8.58
85824.6	410.1	8.61
85828.6	411.4	8.64
85832.6	412.7	8.67
85836.6	413.3	8.68
85840.7	414.6	8.71
85844.6	414.9	8.71
85848.6	415.8	8.73
85852.7	415.2	8.72
85856.6	412.1	8.65
85860.6	407.2	8.55
85864.6	405.7	8.52
85868.7	405.0	8.50
85872.7	405.6	8.52
85876.6	407.4	8.55
85880.6	409.6	8.60
85884.6	409.9	8.61
85888.6	410.0	8.61
85892.6	410.0	8.61
85896.6	411.0	8.63
85900.6	411.7	8.65
85904.6	411.8	8.65
85908.6	410.7	8.63
85912.6	410.9	8.63
85916.6	410.6	8.62
85920.6	411.2	8.64
85924.7	411.8	8.65
85928.6	412.8	8.67
85932.6	412.9	8.67
85936.6	413.2	8.68
85940.6	413.0	8.67
85944.6	413.7	8.69
85948.6	414.0	8.69
85952.6	414.9	8.71
85956.6	415.7	8.73
85960.6	417.3	8.76
85964.6	417.8	8.77
85968.6	418.2	8.78
85972.7	416.9	8.75
85976.7	412.6	8.67
85980.7	405.4	8.51
85984.6	400.7	8.42
85988.6	398.7	8.37
85992.6	397.7	8.35
85996.6	396.5	8.33
86000.6	396.9	8.33
86004.6	396.2	8.32
86008.6	394.3	8.28
86012.6	392.0	8.23
86016.6	391.2	8.22
86020.6	390.5	8.20
86024.6	390.6	8.20
86028.6	390.3	8.20
86032.6	390.7	8.21
86036.6	390.6	8.20
86040.6	390.6	8.20
86044.6	390.1	8.19
86048.6	390.5	8.20
86052.6	390.2	8.19
86056.6	390.1	8.19
86060.6	389.6	8.18
86064.6	389.9	8.19
86068.6	389.3	8.18
86072.6	389.2	8.17
86076.6	388.8	8.17
86080.6	389.2	8.17
86084.6	388.7	8.16
86088.6	388.9	8.17
86092.6	389.0	8.17
86096.6	389.4	8.18
86100.7	389.1	8.17
86104.6	389.8	8.19
86108.6	390.0	8.19
86112.6	390.2	8.19
86116.6	389.5	8.18
86120.6	389.4	8.18
86124.7	388.9	8.17
86128.6	388.6	8.16
86132.6	388.3	8.15
86136.6	388.7	8.16
86140.6	388.6	8.16
86144.6	389.3	8.18
86148.6	391.0	8.21
86152.6	394.7	8.29
86156.6	397.1	8.34
86160.6	398.1	8.36
86164.6	397.5	8.35
86168.7	397.4	8.35
86172.6	398.2	8.36
86176.6	400.6	8.41
86180.6	401.8	8.44
86184.6	403.0	8.46
86188.6	403.3	8.47
86192.6	403.5	8.47
86196.6	402.9	8.46
86200.6	401.1	8.42
86204.6	397.5	8.35
86208.6	396.7	8.33
86212.6	397.9	8.36
86216.6	399.6	8.39
86220.6	399.9	8.40
86224.6	399.6	8.39
86228.6	398.6	8.37
86232.6	398.4	8.37
86236.6	397.8	8.35
86240.6	397.7	8.35
86244.6	396.7	8.33
86248.6	396.2	8.32
86252.6	394.8	8.29
86256.6	393.4	8.26
86260.6	391.3	8.22
86264.6	390.3	8.20
86268.6	389.4	8.18
86272.6	388.6	8.16
86276.6	386.7	8.12
86280.6	386.4	8.11
86284.6	386.4	8.11
86288.6	386.7	8.12
86292.6	386.0	8.11
86296.6	385.3	8.09
86300.6	384.1	8.07
86304.6	383.4	8.05
86308.6	382.2	8.03
86312.6	381.7	8.02
86316.6	380.8	8.00
86320.6	380.1	7.98
86324.6	379.0	7.96
86328.6	378.5	7.95
86332.6	377.5	7.93
86336.6	376.7	7.91
86340.6	375.2	7.88
86344.6	375.2	7.88
86348.6	375.1	7.88
86352.6	375.3	7.88
86356.6	375.3	7.88
86360.6	376.0	7.90
86364.6	376.5	7.91
86368.6	378.5	7.95
86372.6	380.2	7.98
86376.6	381.5	8.01
86380.5	382.1	8.03
86384.5	383.1	8.05
86388.6	383.0	8.04
86392.6	385.7	8.10
86396.6	390.4	8.20
86400.6	392.8	8.25
86404.6	391.2	8.22
86408.6	390.1	8.19
86412.6	389.0	8.17
86416.6	386.2	8.11
86420.6	379.5	7.97
86424.6	371.7	7.81
86428.6	363.0	7.62
86432.6	354.8	7.45
86436.6	346.7	7.28
86440.6	340.8	7.16
86444.6	337.4	7.08
86448.6	336.6	7.07
86452.6	337.0	7.08
86456.6	338.0	7.10
86460.6	337.7	7.09
86464.5	337.4	7.09
86468.6	337.1	7.08
86472.5	339.8	7.14
86476.5	345.0	7.24
86480.5	349.2	7.33
86484.6	353.0	7.41
86488.5	358.7	7.53
86492.6	361.4	7.59
86496.6	361.8	7.60
86500.5	360.6	7.57
86504.6	358.3	7.52
86508.6	354.1	7.44
86512.6	351.2	7.38
86516.5	351.3	7.38
86520.5	356.7	7.49
86524.5	361.6	7.59
86528.5	364.0	7.64
86532.6	364.8	7.66
86536.5	365.0	7.66
86540.5	365.1	7.67
86544.5	366.8	7.70
86548.5	368.0	7.73
86552.5	370.0	7.77
86556.5	372.8	7.83
86560.6	375.7	7.89
86564.6	377.4	7.93
86568.5	379.3	7.97
86572.5	380.2	7.98
86576.5	381.0	8.00
86580.6	381.0	8.00
86584.6	381.9	8.02
86588.5	383.0	8.04
86592.5	383.9	8.06
86596.5	383.6	8.06
86600.5	384.5	8.08
86604.6	386.0	8.11
86608.6	388.2	8.15
86612.5	389.3	8.17
86616.6	390.0	8.19
86620.5	389.3	8.18
86624.6	389.2	8.17
86628.5	388.4	8.16
86632.5	387.9	8.15
86636.5	386.5	8.12
86640.5	385.5	8.10
86644.5	383.9	8.06
86648.5	382.3	8.03
86652.5	380.4	7.99
86656.6	379.2	7.96
86660.5	377.6	7.93
86664.5	376.1	7.90
86668.5	373.7	7.85
86672.5	370.3	7.78
86676.5	364.9	7.66
86680.5	360.1	7.56
86684.5	357.0	7.50
86688.5	357.5	7.51
86692.5	358.0	7.52
86696.5	358.5	7.53
86700.5	359.0	7.54
86704.5	360.3	7.57
86708.5	360.6	7.57
86712.5	360.1	7.56
86716.5	358.1	7.52
86720.5	355.6	7.47
86724.5	352.7	7.41
86728.6	349.2	7.33
86732.5	343.8	7.22
86736.5	342.5	7.19
86740.5	345.1	7.25
86744.5	348.0	7.31
86748.5	348.4	7.32
86752.5	349.2	7.33
86756.5	348.9	7.33
86760.5	348.0	7.31
86764.5	345.4	7.25
86768.5	342.1	7.18
86772.5	339.3	7.12
86776.5	338.5	7.11
86780.5	338.9	7.12
86784.5	340.4	7.15
86788.5	340.9	7.16
86792.5	341.5	7.17
86796.5	342.3	7.19
86800.5	343.9	7.22
86804.5	345.3	7.25
86808.5	346.2	7.27
86812.5	345.8	7.26
86816.5	345.9	7.26
86820.5	345.5	7.26
86824.5	345.3	7.25
86828.5	344.3	7.23
86832.5	343.6	7.22
86836.5	342.7	7.20
86840.5	341.9	7.18
86844.5	340.8	7.16
86848.5	341.1	7.16
86852.5	340.9	7.16
86856.5	340.4	7.15
86860.5	340.1	7.14
86864.5	339.4	7.13
86868.5	336.8	7.07
86872.5	335.2	7.04
86876.5	334.6	7.03
86880.5	335.5	7.05
86884.5	335.9	7.05
86888.5	336.9	7.08
86892.5	337.2	7.08
86896.5	336.4	7.07
86900.5	335.7	7.05
86904.5	336.2	7.06
86908.5	335.8	7.05
86912.5	335.2	7.04
86916.5	334.7	7.03
86920.5	336.2	7.06
86924.5	337.8	7.09
86928.5	338.7	7.11
86932.5	339.9	7.14
86936.5	342.8	7.20
86940.5	343.8	7.22
86944.5	341.2	7.17
86948.5	336.8	7.07
86952.5	335.5	7.04
86956.5	335.0	7.03
86960.5	334.8	7.03
86964.5	334.4	7.02
86968.5	334.8	7.03
86972.5	334.8	7.03
86976.5	334.7	7.03
86980.5	334.2	7.02
86984.5	333.8	7.01
86988.5	332.6	6.98
86992.5	331.7	6.97
86996.5	330.9	6.95
87000.5	331.0	6.95
87004.5	330.6	6.94
87008.5	330.8	6.95
87012.5	331.2	6.95
87016.4	332.2	6.98
87020.5	332.8	6.99
87024.5	333.4	7.00
87028.5	332.7	6.99
87032.5	332.4	6.98
87036.5	331.9	6.97
87040.5	331.4	6.96
87044.5	330.6	6.94
87048.5	330.5	6.94
87052.5	329.9	6.93
87056.5	330.3	6.94
87060.5	330.9	6.95
87064.5	331.0	6.95
87068.5	330.5	6.94
87072.5	331.8	6.97
87076.5	333.3	7.00
87080.5	335.0	7.04
87084.5	335.7	7.05
87088.5	333.8	7.01
87092.5	330.2	6.93
87096.5	329.4	6.92
87100.5	330.7	6.94
87104.5	333.0	6.99
87108.5	334.3	7.02
87112.5	335.0	7.03
87116.5	334.8	7.03
87120.5	335.9	7.05
87124.5	336.8	7.07
87128.4	337.3	7.08
87132.5	337.3	7.08
87136.5	339.7	7.13
87140.5	343.3	7.21
87144.4	347.0	7.29
87148.5	349.2	7.33
87152.4	351.4	7.38
87156.5	353.0	7.41
87160.4	354.7	7.45
87164.4	354.8	7.45
87168.5	353.8	7.43
87172.5	352.5	7.40
87176.5	354.4	7.44
87180.5	358.4	7.53
87184.5	363.9	7.64
87188.5	370.2	7.77
87192.5	378.8	7.96
87196.5	385.9	8.10
87200.4	390.7	8.21
87204.5	395.7	8.31
87208.5	400.4	8.41
87212.5	401.0	8.42
87216.5	400.1	8.40
87220.4	397.9	8.36
87224.5	396.3	8.32
87228.5	395.8	8.31
87232.5	396.7	8.33
87236.5	396.0	8.32
87240.5	395.2	8.30
87244.4	394.1	8.28
87248.4	391.8	8.23
87252.4	388.1	8.15
87256.5	387.8	8.14
87260.4	389.2	8.17
87264.4	390.3	8.20
87268.4	390.0	8.19
87272.4	389.8	8.19
87276.4	388.0	8.15
87280.5	387.0	8.13
87284.4	386.6	8.12
87288.4	386.7	8.12
87292.4	386.0	8.11
87296.4	385.5	8.10
87300.4	384.3	8.07
87304.5	383.6	8.06
87308.4	382.8	8.04
87312.4	383.1	8.04
87316.4	383.0	8.04
87320.4	383.1	8.05
87324.4	382.7	8.04
87328.5	382.8	8.04
87332.4	381.5	8.01
87336.4	380.3	7.99
87340.4	379.4	7.97
87344.4	377.8	7.93
87348.4	374.0	7.85
87352.5	371.2	7.80
87356.4	369.4	7.76
87360.4	365.9	7.68
87364.4	357.3	7.50
87368.4	350.7	7.36
87372.4	354.0	7.43
87376.4	362.5	7.61
87380.4	359.6	7.55
87384.4	356.0	7.48
87388.4	358.7	7.53
87392.4	358.8	7.53
87396.4	356.8	7.49
87400.4	350.4	7.36
87404.4	349.5	7.34
87408.4	358.3	7.52
87412.4	358.3	7.52
87416.4	357.0	7.50
87420.4	357.8	7.51
87424.4	352.3	7.40
87428.4	344.9	7.24
87432.4	343.2	7.21
87436.4	344.0	7.22
87440.4	345.2	7.25
87444.4	344.7	7.24
87448.4	346.7	7.28
87452.4	349.0	7.33
87456.4	351.0	7.37
87460.4	351.4	7.38
87464.4	347.7	7.30
87468.4	342.1	7.18
87472.4	339.9	7.14
87476.4	340.0	7.14
87480.4	341.1	7.16
87484.4	343.7	7.22
87488.4	349.9	7.35
87492.4	356.0	7.48
87496.4	363.2	7.63
87500.4	366.0	7.69
87504.4	358.4	7.53
87508.4	345.9	7.26
87512.4	340.3	7.15
87516.4	339.8	7.14
87520.4	339.3	7.13
87524.4	338.4	7.11
87528.4	339.6	7.13
87532.4	340.3	7.15
87536.4	341.5	7.17
87540.4	343.8	7.22
87544.4	349.8	7.34
87548.4	358.1	7.52
87552.4	362.3	7.61
87556.4	357.0	7.50
87560.4	347.8	7.30
87564.4	339.7	7.13
87568.4	333.3	7.00
87572.4	327.5	6.88
87576.4	326.1	6.85
87580.4	325.3	6.83
87584.4	323.2	6.79
87588.4	321.1	6.74
87592.4	320.9	6.74
87596.4	321.1	6.74
87600.4	322.4	6.77
87604.4	323.1	6.78
87608.4	322.8	6.78
87612.4	319.8	6.72
87616.4	315.0	6.62
87620.4	310.5	6.52
87624.4	307.3	6.45
87628.4	301.0	6.32
87632.4	295.1	6.20
87636.4	297.0	6.24
87640.4	299.9	6.30
87644.4	293.2	6.16
87648.4	285.1	5.99
87652.4	280.4	5.89
87656.4	278.9	5.86
87660.4	279.1	5.86
87664.4	279.1	5.86
87668.4	277.6	5.83
87672.4	276.1	5.80
87676.4	273.6	5.75
87680.3	272.4	5.72
87684.3	271.7	5.71
87688.4	270.3	5.68
87692.4	267.4	5.62
87696.4	266.1	5.59
87700.4	265.8	5.58
87704.4	264.8	5.56
87708.4	262.2	5.51
87712.4	261.0	5.48
87716.4	261.3	5.49
87720.4	261.5	5.49
87724.3	259.6	5.45
87728.4	258.7	5.43
87732.4	258.9	5.44
87736.3	259.2	5.44
87740.4	258.8	5.43
87744.4	258.9	5.44
87748.4	259.2	5.44
87752.4	259.9	5.46
87756.4	260.3	5.47
87760.4	260.2	5.46
87764.4	258.8	5.44
87768.3	257.7	5.41
87772.4	256.6	5.39
87776.3	256.5	5.39
87780.3	256.3	5.38
87784.4	256.5	5.39
87788.3	256.4	5.38
87792.4	257.0	5.40
87796.4	257.6	5.41
87800.4	258.5	5.43
87804.4	258.8	5.43
87808.4	258.9	5.44
87812.3	257.5	5.41
87816.4	256.1	5.38
87820.4	255.1	5.36
87824.3	255.1	5.36
87828.4	254.8	5.35
87832.3	254.8	5.35
87836.4	254.7	5.35
87840.4	256.0	5.38
87844.4	258.8	5.43
87848.3	261.4	5.49
87852.4	261.8	5.50
87856.3	262.1	5.50
87860.3	261.9	5.50
87864.4	262.1	5.50
87868.3	262.1	5.51
87872.4	262.3	5.51
87876.4	262.2	5.51
87880.4	262.3	5.51
87884.4	261.9	5.50
87888.4	262.1	5.50
87892.4	262.3	5.51
87896.4	262.7	5.52
87900.3	262.1	5.50
87904.4	261.2	5.49
87908.4	260.2	5.46
87912.4	259.5	5.45
87916.4	258.4	5.43
87920.4	257.5	5.41
87924.4	256.4	5.38
87928.3	258.1	5.42
87932.4	261.0	5.48
87936.3	261.9	5.50
87940.4	260.2	5.46
87944.3	258.0	5.42
87948.4	253.8	5.33
87952.3	248.9	5.23
87956.3	246.9	5.19
87960.3	246.6	5.18
87964.3	243.8	5.12
87968.3	241.3	5.07
87972.3	240.3	5.05
87976.4	240.5	5.05
87980.3	240.0	5.04
87984.3	240.1	5.04
87988.3	239.9	5.04
87992.3	239.5	5.03
87996.3	238.9	5.02
88000.3	241.3	5.07
88004.3	246.2	5.17
88008.3	249.0	5.23
88012.3	249.0	5.23
88016.3	249.5	5.24
88020.3	247.6	5.20
88024.3	243.2	5.11
88028.3	240.5	5.05
88032.3	241.2	5.07
88036.3	240.5	5.05
88040.3	239.0	5.02
88044.3	237.7	4.99
88048.3	237.9	5.00
88052.3	239.0	5.02
88056.3	241.0	5.06
88060.3	242.1	5.09
88064.3	242.4	5.09
88068.3	243.9	5.12
88072.3	248.8	5.22
88076.3	253.4	5.32
88080.3	253.5	5.32
88084.3	252.0	5.29
88088.3	259.5	5.45
88092.3	271.0	5.69
88096.3	277.8	5.83
88100.3	279.5	5.87
88104.3	277.0	5.82
88108.3	268.1	5.63
88112.3	260.9	5.48
88116.3	261.5	5.49
88120.3	264.8	5.56
88124.3	268.1	5.63
88128.3	274.0	5.75
88132.3	276.6	5.81
88136.3	278.9	5.86
88140.3	282.2	5.93
88144.3	283.8	5.96
88148.3	285.3	5.99
88152.3	289.2	6.07
88156.3	294.2	6.18
88160.3	298.5	6.27
88164.3	301.0	6.32
88168.2	304.0	6.38
88172.3	306.1	6.43
88176.3	307.1	6.45
88180.3	308.2	6.47
88184.3	312.0	6.55
88188.3	315.7	6.63
88192.3	318.0	6.68
88196.3	318.4	6.69
88200.3	318.9	6.70
88204.3	319.6	6.71
88208.3	321.4	6.75
88212.3	322.8	6.78
88216.3	324.4	6.81
88220.3	325.0	6.82
88224.2	326.3	6.85
88228.3	327.8	6.88
88232.3	329.3	6.91
88236.3	330.2	6.93
88240.3	331.6	6.96
88244.2	332.4	6.98
88248.2	333.3	7.00
88252.3	333.3	7.00
88256.2	334.3	7.02
88260.2	335.4	7.04
88264.3	336.2	7.06
88268.3	335.9	7.05
88272.2	336.4	7.06
88276.2	336.9	7.08
88280.2	337.7	7.09
88284.3	337.9	7.10
88288.3	338.7	7.11
88292.3	338.9	7.12
88296.2	339.3	7.13
88300.2	339.4	7.13
88304.2	339.8	7.14
88308.3	339.2	7.12
88312.2	339.8	7.14
88316.3	340.2	7.14
88320.2	339.6	7.13
88324.2	337.4	7.09
88328.2	335.9	7.05
88332.2	335.5	7.04
88336.2	337.0	7.08
88340.2	338.6	7.11
88344.2	338.4	7.11
88348.2	336.4	7.06
88352.2	337.3	7.08
88356.2	339.2	7.12
88360.2	338.1	7.10
88364.2	334.7	7.03
88368.2	333.3	7.00
88372.2	332.3	6.98
88376.2	331.1	6.95
88380.2	329.8	6.93
88384.2	329.5	6.92
88388.2	329.6	6.92
88392.2	330.2	6.93
88396.2	329.1	6.91
88400.2	328.1	6.89
88404.2	326.9	6.86
88408.2	326.7	6.86
88412.2	327.1	6.87
88416.2	329.8	6.93
88420.2	333.9	7.01
88424.2	337.2	7.08
88428.2	337.6	7.09
88432.2	336.4	7.06
88436.2	334.8	7.03
88440.2	335.5	7.05
88444.2	337.2	7.08
88448.2	339.5	7.13
88452.2	339.9	7.14
88456.2	340.4	7.15
88460.2	340.9	7.16
88464.2	341.9	7.18
88468.2	344.5	7.23
88472.2	351.9	7.39
88476.2	354.8	7.45
88480.2	351.8	7.39
88484.2	351.8	7.39
88488.2	357.0	7.50
88492.2	361.5	7.59
88496.2	364.7	7.66
88500.2	365.7	7.68
88504.2	364.4	7.65
88508.2	360.7	7.57
88512.2	359.9	7.56
88516.2	361.5	7.59
88520.2	362.6	7.61
88524.2	360.8	7.58
88528.2	358.3	7.53
88532.2	356.0	7.48
88536.2	355.0	7.45
88540.2	352.5	7.40
88544.2	349.6	7.34
88548.2	347.6	7.30
88552.2	347.5	7.30
88556.2	345.8	7.26
88560.2	341.7	7.18
88564.2	338.6	7.11
88568.2	341.7	7.18
88572.2	347.6	7.30
88576.2	355.3	7.46
88580.2	363.5	7.63
88584.2	370.5	7.78
88588.2	374.0	7.85
88592.2	376.4	7.91
88596.2	377.4	7.92
88600.2	377.6	7.93
88604.2	375.6	7.89
88608.2	373.6	7.85
88612.2	371.3	7.80
88616.2	371.1	7.79
88620.2	372.8	7.83
88624.2	374.3	7.86
88628.2	374.5	7.87
88632.2	377.3	7.92
88636.2	380.9	8.00
88640.2	383.2	8.05
88644.2	383.4	8.05
88648.2	384.5	8.08
88652.2	385.3	8.09
88656.2	384.2	8.07
88660.2	379.2	7.96
88664.2	373.2	7.84
88668.2	367.5	7.72
88672.2	357.3	7.50
88676.2	341.9	7.18
88680.2	337.4	7.09
88684.2	350.1	7.35
88688.2	369.5	7.76
88692.2	380.1	7.98
88696.2	382.8	8.04
88700.2	383.8	8.06
88704.2	386.0	8.11
88708.2	387.0	8.13
88712.2	382.0	8.02
88716.2	367.4	7.72
88720.2	356.8	7.49
88724.2	358.7	7.53
88728.2	365.3	7.67
88732.2	365.7	7.68
88736.2	359.1	7.54
88740.2	353.8	7.43
88744.2	358.1	7.52
88748.2	360.7	7.58
88752.2	359.2	7.54
88756.2	358.9	7.54
88760.2	357.4	7.51
88764.2	349.4	7.34
88768.1	337.5	7.09
88772.1	326.8	6.86
88776.1	316.2	6.64
88780.1	302.8	6.36
88784.1	293.2	6.16
88788.1	286.6	6.02
88792.1	282.3	5.93
88796.1	281.1	5.90
88800.1	281.1	5.90
88804.1	280.5	5.89
88808.1	280.7	5.90
88812.1	281.1	5.90
88816.1	281.6	5.91
88820.2	281.6	5.91
88824.1	282.0	5.92
88828.1	282.5	5.93
88832.1	284.0	5.96
88836.1	284.4	5.97
88840.1	284.2	5.97
88844.1	283.5	5.95
88848.1	283.9	5.96
88852.1	284.6	5.98
88856.1	285.8	6.00
88860.1	286.0	6.01
88864.1	286.2	6.01
88868.1	286.4	6.01
88872.1	287.1	6.03
88876.1	287.6	6.04
88880.1	288.2	6.05
88884.1	288.3	6.05
88888.1	289.2	6.07
88892.1	289.8	6.08
88896.1	289.7	6.08
88900.1	289.3	6.08
88904.1	290.6	6.10
88908.1	291.9	6.13
88912.1	293.1	6.15
88916.1	294.0	6.17
88920.1	295.0	6.19
88924.1	295.7	6.21
88928.1	297.0	6.24
88932.1	297.2	6.24
88936.1	297.0	6.24
88940.1	296.5	6.23
88944.1	296.6	6.23
88948.1	296.5	6.23
88952.1	296.4	6.22
88956.1	295.3	6.20
88960.1	295.0	6.20
88964.1	293.9	6.17
88968.1	292.0	6.13
88972.1	290.3	6.10
88976.1	290.8	6.11
88980.1	292.1	6.13
88984.1	293.3	6.16
88988.1	293.7	6.17
88992.1	294.4	6.18
88996.1	294.8	6.19
89000.1	295.5	6.21
89004.1	298.0	6.26
89008.1	302.1	6.34
89012.1	303.5	6.37
89016.1	303.1	6.36
89020.1	302.1	6.34
89024.1	303.2	6.37
89028.1	305.4	6.41
89032.1	307.1	6.45
89036.1	307.0	6.45
89040.1	308.0	6.47
89044.1	310.4	6.52
89048.1	313.1	6.58
89052.1	314.8	6.61
89056.1	316.5	6.65
89060.1	316.7	6.65
89064.1	316.6	6.65
89068.1	317.1	6.66
89072.1	318.2	6.68
89076.1	318.7	6.69
89080.1	319.0	6.70
89084.1	318.2	6.68
89088.1	317.4	6.66
89092.1	310.9	6.53
89096.1	300.7	6.31
89100.1	296.8	6.23
89104.1	297.7	6.25
89108.1	294.8	6.19
89112.1	291.4	6.12
89116.1	289.9	6.09
89120.1	294.6	6.19
89124.1	306.2	6.43
89128.1	328.2	6.89
89132.1	364.6	7.66
89136.1	396.8	8.33
89140.1	405.6	8.52
89144.1	400.6	8.41
89148.1	383.6	8.06
89152.1	360.1	7.56
89156.1	341.8	7.18
89160.1	331.7	6.97
89164.1	326.2	6.85
89168.1	324.8	6.82
89172.1	324.4	6.81
89176.1	323.4	6.79
89180.1	322.3	6.77
89184.1	324.1	6.81
89188.1	326.2	6.85
89192.1	327.5	6.88
89196.1	328.2	6.89
89200.1	330.0	6.93
89204.1	331.8	6.97
89208.1	333.8	7.01
89212.1	335.5	7.04
89216.1	337.6	7.09
89220.1	337.4	7.08
89224.1	337.1	7.08
89228.1	340.3	7.15
89232.1	345.5	7.25
89236.1	349.7	7.34
89240.1	356.2	7.48
89244.1	362.6	7.61
89248.1	366.1	7.69
89252.1	366.2	7.69
89256.1	365.8	7.68
89260.1	364.9	7.66
89264.1	365.2	7.67
89268.1	365.1	7.67
89272.1	364.4	7.65
89276.1	363.9	7.64
89280.1	364.9	7.66
89284.1	365.7	7.68
89288.1	366.6	7.70
89292.1	366.6	7.70
89296.1	365.0	7.66
89300.1	360.1	7.56
89304.1	356.0	7.48
89308.1	353.7	7.43
89312.1	353.2	7.42
89316.1	353.7	7.43
89320.1	357.3	7.50
89324.1	359.8	7.56
89328.1	362.6	7.62
89332.1	372.1	7.81
89336.1	384.5	8.07
89340.1	393.1	8.25
89344.1	400.4	8.41
89348.1	404.3	8.49
89352.1	406.0	8.53
89356.1	405.7	8.52
89360.1	402.1	8.44
89364.1	395.2	8.30
89368.1	390.5	8.20
89372.1	389.4	8.18
89376.0	395.1	8.30
89380.0	404.2	8.49
89384.0	409.7	8.60
89388.0	411.1	8.63
89392.0	413.7	8.69
89396.0	415.8	8.73
89400.0	417.0	8.76
89404.0	416.6	8.75
89408.0	416.6	8.75
89412.1	416.6	8.75
89416.0	417.2	8.76
89420.0	417.0	8.76
89424.0	417.6	8.77
89428.0	418.2	8.78
89432.0	418.8	8.80
89436.1	418.1	8.78
89440.0	416.6	8.75
89444.0	408.4	8.58
89448.0	395.7	8.31
89452.0	389.4	8.18
89456.0	388.6	8.16
89460.1	383.2	8.05
89464.0	378.0	7.94
89468.0	374.9	7.87
89472.0	371.0	7.79
89476.0	364.8	7.66
89480.0	358.8	7.53
89484.1	352.8	7.41
89488.0	348.2	7.31
89492.0	344.1	7.23
89496.0	341.1	7.16
89500.0	340.8	7.16
89504.0	341.7	7.18
89508.0	338.5	7.11
89512.0	335.5	7.05
89516.0	334.6	7.03
89520.0	335.2	7.04
89524.0	334.4	7.02
89528.0	331.2	6.96
89532.0	324.8	6.82
89536.0	319.9	6.72
89540.0	316.0	6.64
89544.0	310.7	6.52
89548.0	305.6	6.42
89552.0	301.3	6.33
89556.0	295.8	6.21
89560.0	292.1	6.13
89564.0	289.0	6.07
89568.0	286.6	6.02
89572.0	284.6	5.98
89576.0	284.1	5.97
89580.0	282.6	5.93
89584.0	276.5	5.81
89588.0	267.9	5.63
89592.0	265.6	5.58
89596.0	268.6	5.64
89600.0	272.8	5.73
89604.0	280.3	5.89
89608.0	289.6	6.08
89612.0	293.6	6.17
89616.0	298.7	6.27
89620.0	306.8	6.44
89624.0	312.9	6.57
89628.0	316.7	6.65
89632.0	320.3	6.73
89636.0	323.2	6.79
89640.0	327.1	6.87
89644.0	329.6	6.92
89648.0	331.2	6.96
89652.0	333.4	7.00
89656.0	336.9	7.07
89660.0	338.5	7.11
89664.0	339.9	7.14
89668.0	339.5	7.13
89672.0	338.4	7.11
89676.0	341.2	7.17
89680.0	346.0	7.27
89684.0	347.5	7.30
89688.0	347.7	7.30
89692.0	347.3	7.29
89696.0	347.5	7.30
89700.0	346.0	7.27
89704.0	342.6	7.19
89708.0	337.5	7.09
89712.0	331.4	6.96
89716.0	325.7	6.84
89720.0	324.4	6.81
89724.0	324.4	6.81
89728.0	325.5	6.84
89732.0	327.5	6.88
89736.0	328.4	6.90
89740.0	327.2	6.87
89744.0	327.1	6.87
89748.0	327.7	6.88
89752.0	328.2	6.89
89756.0	326.7	6.86
89760.0	325.4	6.83
89764.0	323.5	6.79
89768.0	321.7	6.75
89772.0	319.3	6.70
89776.0	317.6	6.67
89780.0	315.8	6.63
89784.0	313.7	6.59
89788.0	310.7	6.52
89792.0	308.1	6.47
89796.0	304.7	6.40
89800.0	300.5	6.31
89804.0	296.1	6.22
89808.0	293.7	6.17
89812.0	292.1	6.13
89816.0	291.6	6.12
89820.0	291.3	6.12
89824.0	292.6	6.14
89828.0	295.3	6.20
89832.0	298.0	6.26
89836.0	298.0	6.26
89840.0	294.7	6.19
89844.0	288.8	6.06
89848.0	290.0	6.09
89852.0	295.4	6.20
89856.0	297.6	6.25
89860.0	303.8	6.38
89864.0	312.9	6.57
89868.0	311.2	6.54
89872.0	305.8	6.42
89876.0	303.6	6.38
89880.0	304.7	6.40
89884.0	307.7	6.46
89888.0	309.3	6.50
89892.0	309.9	6.51
89896.0	311.5	6.54
89900.0	311.8	6.55
89904.0	310.7	6.52
89908.0	308.9	6.49
89912.0	310.6	6.52
89916.0	313.4	6.58
89920.0	312.2	6.56
89924.0	306.6	6.44
89928.0	303.5	6.37
89932.0	302.8	6.36
89936.0	302.3	6.35
89940.0	302.0	6.34
89944.0	301.4	6.33
89948.0	300.9	6.32
89952.0	302.0	6.34
89956.0	302.2	6.35
89960.0	302.0	6.34
89964.0	303.8	6.38
89968.0	309.0	6.49
89972.0	312.3	6.56
89976.0	313.4	6.58
89980.0	314.0	6.59
89984.0	314.8	6.61
89987.9	314.7	6.61
89991.9	315.7	6.63
89995.9	316.7	6.65
89999.9	315.7	6.63
90004.0	311.9	6.55
90007.9	310.5	6.52
90011.9	312.3	6.56
90015.9	313.7	6.59
90019.9	310.6	6.52
90023.9	308.1	6.47
90027.9	308.3	6.47
90031.9	310.9	6.53
90035.9	313.7	6.59
90039.9	315.0	6.62
90043.9	314.8	6.61
90047.9	316.3	6.64
90051.9	317.7	6.67
90055.9	319.1	6.70
90059.9	319.8	6.72
90063.9	320.9	6.74
90067.9	322.5	6.77
90071.9	325.4	6.83
90075.9	328.6	6.90
90079.9	332.1	6.97
90083.9	332.9	6.99
90087.9	333.9	7.01
90091.9	335.8	7.05
90095.9	335.9	7.05
90099.9	335.4	7.04
90103.9	338.4	7.11
90107.9	342.8	7.20
90111.9	347.1	7.29
90115.9	349.7	7.34
90119.9	350.4	7.36
90123.9	344.9	7.24
90127.9	336.4	7.07
90131.9	332.0	6.97
90135.9	331.6	6.96
90139.9	330.8	6.95
90143.9	330.0	6.93
90147.9	328.6	6.90
90151.9	327.7	6.88
90155.9	326.9	6.87
90159.9	327.6	6.88
90163.9	327.8	6.88
90167.9	326.6	6.86
90171.9	325.8	6.84
90175.9	326.7	6.86
90179.9	324.7	6.82
90183.9	322.4	6.77
90187.9	319.2	6.70
90191.9	315.6	6.63
90195.9	313.6	6.59
90199.9	314.4	6.60
90203.9	314.5	6.61
90207.9	313.6	6.59
90211.9	313.4	6.58
90215.9	314.6	6.61
90219.9	315.0	6.61
90223.9	315.4	6.62
90227.9	315.1	6.62
90231.9	314.6	6.61
90235.9	314.0	6.59
90239.9	314.8	6.61
90243.9	315.5	6.62
90247.9	316.0	6.64
90251.9	315.9	6.63
90255.9	316.2	6.64
90259.9	316.1	6.64
90263.9	316.4	6.65
90267.9	316.5	6.65
90271.9	316.6	6.65
90275.9	315.9	6.63
90279.9	315.4	6.62
90283.9	314.5	6.60
90287.9	314.6	6.61
90291.9	315.1	6.62
90295.9	315.5	6.63
90299.9	315.2	6.62
90303.9	315.1	6.62
90307.9	314.8	6.61
90311.9	315.1	6.62
90315.9	315.0	6.62
90319.9	315.4	6.62
90323.9	315.1	6.62
90327.9	314.8	6.61
90331.9	314.4	6.60
90335.9	315.0	6.62
90339.9	315.2	6.62
90343.9	315.7	6.63
90347.9	315.7	6.63
90351.9	315.8	6.63
90355.9	315.5	6.63
90359.9	315.5	6.63
90363.9	315.3	6.62
90367.9	315.7	6.63
90371.9	315.5	6.63
90375.9	315.3	6.62
90379.9	315.1	6.62
90383.9	315.4	6.62
90387.9	315.0	6.61
90391.9	315.0	6.61
90395.9	314.7	6.61
90399.9	314.8	6.61
90403.9	314.6	6.61
90407.9	314.7	6.61
90411.9	314.4	6.60
90415.9	314.6	6.61
90419.9	314.3	6.60
90423.9	314.2	6.60
90427.9	313.7	6.59
90431.9	313.8	6.59
90435.9	313.5	6.58
90439.9	313.4	6.58
90443.9	313.2	6.58
90447.9	313.3	6.58
90451.9	312.9	6.57
90455.9	313.1	6.58
90459.9	313.3	6.58
90463.9	313.8	6.59
90467.9	314.0	6.59
90471.9	314.0	6.59
90475.9	313.1	6.57
90479.9	312.4	6.56
90483.9	311.6	6.54
90487.9	311.4	6.54
90491.9	310.8	6.53
90495.9	310.9	6.53
90499.9	311.2	6.54
90503.9	311.4	6.54
90507.9	310.8	6.53
90511.9	310.5	6.52
90515.9	310.1	6.51
90519.9	310.0	6.51
90523.9	309.8	6.51
90527.9	311.0	6.53
90531.9	311.5	6.54
90535.9	312.3	6.56
90539.9	314.1	6.60
90543.9	316.5	6.65
90547.9	318.1	6.68
90551.9	320.0	6.72
90555.9	320.9	6.74
90559.9	321.0	6.74
90563.9	320.5	6.73
90567.9	321.6	6.75
90571.9	322.1	6.76
90575.9	322.5	6.77
90579.9	322.8	6.78
90583.9	323.5	6.79
90587.9	323.2	6.79
90591.9	323.4	6.79
90595.9	323.4	6.79
90599.8	323.8	6.80
90603.9	323.9	6.80
90607.8	324.2	6.81
90611.8	323.8	6.80
90615.9	324.0	6.80
90619.8	324.2	6.81
90623.8	324.6	6.82
90627.8	324.6	6.82
90631.9	325.3	6.83
90635.9	325.7	6.84
90639.8	327.2	6.87
90643.8	328.3	6.89
90647.8	329.2	6.91
90651.8	328.9	6.91
90655.8	328.5	6.90
90659.8	327.5	6.88
90663.8	327.4	6.87
90667.8	327.4	6.87
90671.8	329.0	6.91
90675.8	331.9	6.97
90679.8	335.0	7.03
90683.8	336.8	7.07
90687.8	339.1	7.12
90691.8	340.1	7.14
90695.8	340.6	7.15
90699.8	339.7	7.13
90703.8	338.8	7.11
90707.8	337.2	7.08
90711.8	334.9	7.03
90715.8	332.0	6.97
90719.8	331.2	6.96
90723.8	330.3	6.94
90727.8	327.4	6.88
90731.8	324.5	6.81
90735.8	326.6	6.86
90739.8	326.8	6.86
90743.8	323.1	6.78
90747.8	321.9	6.76
90751.8	323.2	6.79
90755.8	323.5	6.79
90759.8	325.7	6.84
90763.8	326.3	6.85
90767.8	325.7	6.84
90771.8	323.3	6.79
90775.8	321.1	6.74
90779.8	320.8	6.74
90783.8	321.5	6.75
90787.8	321.2	6.75
90791.8	321.1	6.74
90795.8	320.4	6.73
90799.8	320.7	6.73
90803.8	320.4	6.73
90807.8	320.5	6.73
90811.8	321.4	6.75
90815.8	322.9	6.78
90819.8	322.6	6.78
90823.8	321.7	6.76
90827.8	319.7	6.71
90831.8	318.9	6.70
90835.8	318.8	6.69
90839.8	319.1	6.70
90843.8	318.9	6.70
90847.8	319.5	6.71
90851.8	319.8	6.71
90855.8	319.7	6.71
90859.8	319.1	6.70
90863.8	319.1	6.70
90867.8	319.5	6.71
90871.8	322.0	6.76
90875.8	324.3	6.81
90879.8	325.4	6.83
90883.8	325.4	6.83
90887.8	325.4	6.83
90891.8	324.9	6.82
90895.8	324.9	6.82
90899.8	324.2	6.81
90903.8	323.2	6.79
90907.8	321.4	6.75
90911.8	320.5	6.73
90915.8	320.0	6.72
90919.8	320.1	6.72
90923.8	320.0	6.72
90927.8	320.0	6.72
90931.8	319.4	6.71
90935.8	319.6	6.71
90939.8	319.2	6.70
90943.8	319.1	6.70
90947.8	318.7	6.69
90951.8	319.2	6.70
90955.8	319.4	6.71
90959.8	319.4	6.71
90963.8	318.8	6.69
90967.8	318.4	6.69
90971.8	317.5	6.67
90975.8	316.9	6.65
90979.8	315.8	6.63
90983.8	316.0	6.64
90987.8	315.9	6.63
90991.8	316.2	6.64
90995.8	316.2	6.64
90999.8	316.6	6.65
91003.8	316.5	6.65
91007.8	316.5	6.65
91011.8	316.3	6.64
91015.8	317.0	6.66
91019.8	316.9	6.66
91023.8	317.5	6.67
91027.8	318.0	6.68
91031.8	319.2	6.70
91035.8	320.0	6.72
91039.8	321.0	6.74
91043.8	321.4	6.75
91047.8	321.9	6.76
91051.8	322.3	6.77
91055.8	322.9	6.78
91059.8	323.2	6.79
91063.8	323.6	6.79
91067.8	322.9	6.78
91071.8	322.1	6.76
91075.8	320.6	6.73
91079.8	319.9	6.72
91083.8	319.1	6.70
91087.8	319.0	6.70
91091.8	319.2	6.70
91095.8	320.7	6.73
91099.8	321.4	6.75
91103.8	321.3	6.75
91107.8	319.8	6.72
91111.8	318.9	6.70
91115.8	317.7	6.67
91119.8	317.2	6.66
91123.8	316.7	6.65
91127.8	316.8	6.65
91131.8	316.3	6.64
91135.8	315.7	6.63
91139.8	314.5	6.61
91143.8	314.0	6.59
91147.8	313.4	6.58
91151.8	313.4	6.58
91155.8	312.9	6.57
91159.8	312.8	6.57
91163.8	312.3	6.56
91167.8	312.4	6.56
91171.8	312.3	6.56
91175.8	312.7	6.57
91179.8	312.8	6.57
91183.8	312.9	6.57
91187.8	312.6	6.56
91191.8	313.0	6.57
91195.8	313.1	6.57
91199.8	313.7	6.59
91203.8	314.0	6.59
91207.8	314.2	6.60
91211.8	314.2	6.60
91215.8	314.7	6.61
91219.8	314.6	6.61
91223.8	314.8	6.61
91227.8	314.6	6.61
91231.8	314.1	6.60
91235.8	313.4	6.58
91239.7	314.5	6.60
91243.7	315.3	6.62
91247.7	315.8	6.63
91251.7	315.1	6.62
91255.7	314.5	6.60
91259.8	313.5	6.58
91263.8	313.8	6.59
91267.8	314.8	6.61
91271.7	315.8	6.63
91275.7	316.4	6.64
91279.7	317.6	6.67
91283.7	318.0	6.68
91287.7	318.5	6.69
91291.7	318.7	6.69
91295.7	319.7	6.71
91299.7	320.8	6.74
91303.7	322.1	6.76
91307.7	322.9	6.78
91311.7	324.6	6.82
91315.7	326.2	6.85
91319.7	327.5	6.88
91323.7	327.2	6.87
91327.7	326.0	6.85
91331.7	324.2	6.81
91335.7	324.5	6.81
91339.7	324.1	6.81
91343.7	323.7	6.80
91347.7	324.1	6.81
91351.7	324.7	6.82
91355.7	323.7	6.80
91359.7	322.9	6.78
91363.7	321.6	6.75
91367.7	320.6	6.73
91371.7	318.2	6.68
91375.7	314.5	6.60
91379.7	310.8	6.53
91383.7	310.3	6.52
91387.7	310.6	6.52
91391.7	311.3	6.54
91395.7	311.0	6.53
91399.7	310.9	6.53
91403.7	310.3	6.52
91407.7	310.1	6.51
91411.7	309.4	6.50
91415.7	309.5	6.50
91419.7	309.6	6.50
91423.7	310.5	6.52
91427.7	312.7	6.57
91431.7	314.7	6.61
91435.7	312.9	6.57
91439.7	310.9	6.53
91443.7	309.6	6.50
91447.7	309.8	6.50
91451.7	309.7	6.50
91455.7	309.5	6.50
91459.7	308.8	6.48
91463.7	306.6	6.44
91467.7	299.6	6.29
91471.7	294.5	6.18
91475.7	294.0	6.17
91479.7	294.2	6.18
91483.7	292.8	6.15
91487.7	292.7	6.15
91491.7	293.5	6.16
91495.7	294.6	6.19
91499.7	294.8	6.19
91503.7	294.9	6.19
91507.7	294.8	6.19
91511.7	294.9	6.19
91515.7	294.5	6.18
91519.7	294.5	6.18
91523.7	293.9	6.17
91527.7	292.1	6.13
91531.7	288.3	6.05
91535.7	285.5	5.99
91539.7	281.8	5.92
91543.7	280.9	5.90
91547.7	284.9	5.98
91551.7	287.9	6.05
91555.7	289.3	6.07
91559.7	295.1	6.20
91563.7	296.9	6.23
91567.7	292.8	6.15
91571.7	292.3	6.14
91575.7	293.7	6.17
91579.7	290.8	6.11
91583.7	290.2	6.09
91587.7	290.5	6.10
91591.7	288.0	6.05
91595.7	286.1	6.01
91599.7	290.1	6.09
91603.7	299.0	6.28
91607.7	308.7	6.48
91611.7	316.2	6.64
91615.7	325.4	6.83
91619.7	332.4	6.98
91623.7	336.3	7.06
91627.7	338.8	7.11
91631.7	340.9	7.16
91635.7	341.5	7.17
91639.7	342.3	7.19
91643.7	343.4	7.21
91647.7	345.9	7.26
91651.7	345.3	7.25
91655.7	339.3	7.13
91659.7	332.9	6.99
91663.7	331.1	6.95
91667.7	328.1	6.89
91671.7	325.2	6.83
91675.7	327.7	6.88
91679.7	336.1	7.06
91683.7	349.1	7.33
91687.7	365.5	7.68
91691.7	381.3	8.01
91695.7	397.4	8.34
91699.7	411.1	8.63
91703.7	419.3	8.81
91707.7	420.3	8.83
91711.7	422.3	8.87
91715.7	423.8	8.90
91719.7	413.0	8.67
91723.7	393.1	8.25
91727.7	382.1	8.02
91731.7	377.2	7.92
91735.7	372.8	7.83
91739.7	369.4	7.76
91743.7	373.1	7.84
91747.7	381.8	8.02
91751.7	382.3	8.03
91755.7	366.4	7.69
91759.7	354.8	7.45
91763.7	362.9	7.62
91767.7	375.4	7.88
91771.7	373.9	7.85
91775.7	366.1	7.69
91779.7	358.5	7.53
91783.7	348.7	7.32
91787.7	337.8	7.09
91791.7	342.6	7.19
91795.7	360.1	7.56
91799.7	369.4	7.76
91803.7	368.2	7.73
91807.7	365.7	7.68
91811.7	360.9	7.58
91815.7	356.6	7.49
91819.7	353.4	7.42
91823.7	352.3	7.40
91827.7	350.4	7.36
91831.6	362.1	7.60
91835.6	401.5	8.43
91839.7	443.5	9.31
91843.6	457.6	9.61
91847.6	453.3	9.52
91851.7	446.6	9.38
91855.7	444.3	9.33
91859.7	442.6	9.29
91863.7	439.9	9.24
91867.7	437.3	9.18
91871.7	439.1	9.22
91875.7	441.4	9.27
91879.7	441.8	9.28
91883.6	439.1	9.22
91887.6	437.6	9.19
91891.6	436.4	9.16
91895.6	434.5	9.12
91899.6	428.6	9.00
91903.7	421.8	8.86
91907.7	417.0	8.76
91911.6	415.4	8.72
91915.7	413.8	8.69
91919.7	410.1	8.61
91923.6	402.4	8.45
91927.6	395.7	8.31
91931.6	391.9	8.23
91935.6	391.2	8.21
91939.6	389.7	8.18
91943.6	387.6	8.14
91947.6	384.1	8.07
91951.6	383.6	8.06
91955.6	386.4	8.11
91959.6	392.3	8.24
91963.6	397.8	8.35
91967.6	404.9	8.50
91971.6	414.2	8.70
91975.6	419.8	8.82
91979.6	417.1	8.76
91983.6	411.8	8.65
91987.6	407.8	8.56
91991.6	407.8	8.56
91995.6	411.2	8.63
91999.6	417.7	8.77
92003.6	424.6	8.92
92007.6	433.2	9.10
92011.6	437.2	9.18
92015.6	435.0	9.13
92019.6	427.0	8.97
92023.6	420.5	8.83
92027.6	420.2	8.82
92031.6	423.1	8.89
92035.6	425.4	8.93
92039.6	427.5	8.98
92043.6	428.0	8.99
92047.6	428.7	9.00
92051.6	427.9	8.99
92055.6	427.9	8.99
92059.6	428.5	9.00
92063.6	430.0	9.03
92067.6	431.4	9.06
92071.6	433.6	9.11
92075.6	434.9	9.13
92079.6	437.3	9.18
92083.6	440.5	9.25
92087.6	445.9	9.36
92091.6	450.0	9.45
92095.6	452.4	9.50
92099.6	453.5	9.52
92103.6	455.9	9.57
92107.6	457.7	9.61
92111.6	460.3	9.67
92115.6	462.6	9.72
92119.6	465.3	9.77
92123.6	467.2	9.81
92127.6	468.0	9.83
92131.6	465.5	9.78
92135.6	468.8	9.85
92139.6	479.6	10.07
92143.6	489.9	10.29
92147.6	495.2	10.40
92151.6	498.1	10.46
92155.6	498.4	10.47
92159.6	499.8	10.50
92163.6	501.2	10.53
92167.6	502.7	10.56
92171.6	503.1	10.56
92175.6	505.0	10.60
92179.6	505.7	10.62
92183.6	505.0	10.61
92187.6	502.0	10.54
92191.6	499.6	10.49
92195.6	497.7	10.45
92199.6	496.7	10.43
92203.6	494.5	10.38
92207.6	492.5	10.34
92211.6	489.7	10.28
92215.6	489.1	10.27
92219.6	488.7	10.26
92223.6	486.7	10.22
92227.6	480.4	10.09
92231.6	473.4	9.94
92235.6	469.1	9.85
92239.6	468.3	9.83
92243.6	467.0	9.81
92247.6	467.0	9.81
92251.6	467.7	9.82
92255.6	464.7	9.76
92259.6	452.0	9.49
92263.6	440.6	9.25
92267.6	437.7	9.19
92271.6	441.6	9.27
92275.6	446.4	9.37
92279.6	452.8	9.51
92283.6	461.9	9.70
92287.6	471.4	9.90
92291.6	478.5	10.05
92295.6	487.9	10.25
92299.6	493.3	10.36
92303.6	494.9	10.39
92307.6	495.3	10.40
92311.6	495.1	10.40
92315.6	492.3	10.34
92319.6	489.2	10.27
92323.6	479.1	10.06
92327.6	462.2	9.71
92331.6	450.4	9.46
92335.6	447.7	9.40
92339.6	448.8	9.43
92343.6	456.7	9.59
92347.6	467.0	9.81
92351.6	473.7	9.95
92355.6	474.2	9.96
92359.6	472.8	9.93
92363.6	469.4	9.86
92367.6	466.7	9.80
92371.6	464.8	9.76
92375.6	464.8	9.76
92379.6	462.9	9.72
92383.6	459.6	9.65
92387.6	456.9	9.59
92391.6	455.4	9.56
92395.6	453.1	9.52
92399.6	452.6	9.50
92403.6	452.6	9.50
92407.6	452.2	9.50
92411.6	450.3	9.46
92415.6	449.3	9.43
92419.6	447.7	9.40
92423.6	447.6	9.40
92427.6	447.6	9.40
92431.6	447.7	9.40
92435.6	446.5	9.38
92439.5	445.8	9.36
92443.5	444.3	9.33
92447.6	442.9	9.30
92451.5	440.7	9.25
92455.5	439.4	9.23
92459.5	438.0	9.20
92463.6	437.1	9.18
92467.6	435.5	9.15
92471.5	435.5	9.15
92475.5	434.8	9.13
92479.5	431.8	9.07
92483.6	425.2	8.93
92487.6	419.6	8.81
92491.6	416.3	8.74
92495.5	416.1	8.74
92499.5	415.7	8.73
92503.5	414.8	8.71
92507.5	413.9	8.69
92511.5	413.8	8.69
92515.5	411.6	8.64
92519.5	409.6	8.60
92523.5	405.7	8.52
92527.5	401.5	8.43
92531.5	399.3	8.39
92535.5	399.1	8.38
92539.5	398.9	8.38
92543.5	401.6	8.43
92547.5	404.5	8.49
92551.5	404.1	8.49
92555.5	401.3	8.43
92559.5	399.8	8.40
92563.5	399.0	8.38
92567.5	399.3	8.38
92571.5	398.0	8.36
92575.5	397.4	8.35
92579.5	396.9	8.33
92583.5	395.7	8.31
92587.5	393.5	8.26
92591.5	393.0	8.25
92595.5	393.3	8.26
92599.5	395.9	8.31
92603.6	399.7	8.39
92607.5	403.4	8.47
92611.5	405.6	8.52
92615.5	407.9	8.57
92619.5	408.4	8.58
92623.5	406.5	8.54
92627.5	402.6	8.45
92631.6	401.5	8.43
92635.5	402.2	8.45
92639.5	404.0	8.48
92643.5	405.5	8.52
92647.5	408.7	8.58
92651.5	412.2	8.66
92655.5	414.1	8.70
92659.5	413.6	8.69
92663.5	414.6	8.71
92667.5	415.9	8.73
92671.5	416.8	8.75
92675.5	414.4	8.70
92679.5	408.9	8.59
92683.5	404.6	8.50
92687.5	406.5	8.54
92691.5	413.0	8.67
92695.5	420.4	8.83
92699.5	422.7	8.88
92703.5	419.3	8.81
92707.5	414.1	8.70
92711.5	414.2	8.70
92715.5	416.1	8.74
92719.5	421.2	8.84
92723.5	428.7	9.00
92727.5	434.2	9.12
92731.5	441.7	9.28
92735.5	454.2	9.54
92739.5	460.2	9.66
92743.5	461.3	9.69
92747.5	461.3	9.69
92751.5	462.4	9.71
92755.5	463.8	9.74
92759.5	465.4	9.77
92763.5	467.6	9.82
92767.5	472.4	9.92
92771.5	477.2	10.02
92775.5	482.4	10.13
92779.5	487.0	10.23
92783.5	491.0	10.31
92787.5	491.5	10.32
92791.5	491.4	10.32
92795.5	494.9	10.39
92799.5	500.1	10.50
92803.5	502.2	10.55
92807.5	504.4	10.59
92811.5	505.3	10.61
92815.5	502.5	10.55
92819.5	490.6	10.30
92823.5	483.2	10.15
92827.5	488.9	10.27
92831.5	491.0	10.31
92835.5	482.9	10.14
92839.5	474.4	9.96
92843.5	463.9	9.74
92847.5	462.7	9.72
92851.5	472.8	9.93
92855.5	480.0	10.08
92859.5	479.6	10.07
92863.5	477.4	10.03
92867.5	472.4	9.92
92871.5	466.7	9.80
92875.5	464.8	9.76
92879.5	468.9	9.85
92883.5	470.7	9.88
92887.5	470.2	9.87
92891.5	470.9	9.89
92895.5	476.8	10.01
92899.5	484.9	10.18
92903.5	493.3	10.36
92907.5	500.5	10.51
92911.5	505.5	10.62
92915.5	505.8	10.62
92919.5	504.9	10.60
92923.5	501.0	10.52
92927.5	495.1	10.40
92931.5	493.6	10.37
92935.5	501.7	10.54
92939.5	507.5	10.66
92943.5	510.0	10.71
92947.5	511.6	10.74
92951.5	513.9	10.79
92955.5	516.1	10.84
92959.5	519.3	10.91
92963.5	522.4	10.97
92967.5	525.9	11.04
92971.5	527.1	11.07
92975.5	527.1	11.07
92979.5	526.1	11.05
92983.5	527.0	11.07
92987.5	526.8	11.06
92991.5	526.8	11.06
92995.5	526.3	11.05
92999.5	524.3	11.01
93003.5	520.0	10.92
93007.5	520.1	10.92
93011.5	524.0	11.00
93015.5	527.8	11.08
93019.5	529.4	11.12
93023.5	529.2	11.11
93027.5	526.2	11.05
93031.5	526.0	11.05
93035.5	527.4	11.08
93039.5	529.6	11.12
93043.5	530.1	11.13
93047.5	531.8	11.17
93051.4	532.6	11.19
93055.5	533.4	11.20
93059.5	532.9	11.19
93063.4	532.2	11.18
93067.4	530.8	11.15
93071.4	530.4	11.14
93075.4	529.8	11.13
93079.5	530.1	11.13
93083.5	529.4	11.12
93087.5	529.1	11.11
93091.5	527.8	11.08
93095.5	527.1	11.07
93099.5	526.4	11.05
93103.5	527.9	11.08
93107.4	529.6	11.12
93111.4	531.9	11.17
93115.4	533.5	11.20
93119.4	536.3	11.26
93123.5	537.1	11.28
93127.5	537.0	11.28
93131.4	536.7	11.27
93135.5	537.1	11.28
93139.4	536.2	11.26
93143.5	536.6	11.27
93147.4	536.9	11.27
93151.4	538.1	11.30
93155.4	539.4	11.33
93159.4	541.3	11.37
93163.5	541.8	11.38
93167.5	542.4	11.39
93171.4	541.7	11.38
93175.4	541.4	11.37
93179.4	540.7	11.36
93183.4	541.0	11.36
93187.4	540.5	11.35
93191.4	540.9	11.36
93195.4	540.5	11.35
93199.5	540.6	11.35
93203.4	539.9	11.34
93207.4	539.8	11.34
93211.4	538.7	11.31
93215.5	537.3	11.28
93219.4	535.3	11.24
93223.4	535.7	11.25
93227.4	536.2	11.26
93231.5	537.3	11.28
93235.4	537.4	11.29
93239.4	537.5	11.29
93243.5	537.1	11.28
93247.5	537.6	11.29
93251.4	537.6	11.29
93255.4	537.8	11.29
93259.5	536.9	11.27
93263.5	536.9	11.28
93267.4	536.7	11.27
93271.4	537.1	11.28
93275.4	536.8	11.27
93279.4	536.8	11.27
93283.4	535.5	11.25
93287.4	534.7	11.23
93291.5	533.7	11.21
93295.4	534.2	11.22
93299.4	533.9	11.21
93303.4	533.1	11.20
93307.5	531.2	11.15
93311.4	531.0	11.15
93315.4	530.6	11.14
93319.4	530.0	11.13
93323.4	529.0	11.11
93327.4	529.0	11.11
93331.4	527.8	11.08
93335.4	527.0	11.07
93339.5	526.2	11.05
93343.4	521.5	10.95
93347.4	506.1	10.63
93351.4	491.0	10.31
93355.4	485.4	10.19
93359.4	485.6	10.20
93363.4	484.1	10.17
93367.4	482.1	10.12
93371.4	481.3	10.11
93375.4	482.4	10.13
93379.4	480.4	10.09
93383.4	477.9	10.04
93387.4	474.4	9.96
93391.4	471.4	9.90
93395.4	469.3	9.86
93399.4	469.7	9.86
93403.4	472.6	9.93
93407.4	477.0	10.02
93411.4	478.1	10.04
93415.4	478.4	10.05
93419.5	477.7	10.03
93423.5	476.1	10.00
93427.4	475.6	9.99
93431.4	477.4	10.02
93435.4	475.3	9.98
93439.5	470.6	9.88
93443.4	468.8	9.84
93447.4	470.5	9.88
93451.4	471.5	9.90
93455.5	473.1	9.93
93459.4	473.4	9.94
93463.4	473.9	9.95
93467.4	474.0	9.95
93471.4	475.0	9.98
93475.4	477.2	10.02
93479.4	484.3	10.17
93483.4	489.5	10.28
93487.4	490.6	10.30
93491.4	489.6	10.28
93495.4	489.8	10.29
93499.4	490.9	10.31
93503.4	493.3	10.36
93507.4	496.7	10.43
93511.4	502.4	10.55
93515.4	506.3	10.63
93519.4	511.1	10.73
93523.4	514.7	10.81
93527.4	517.0	10.86
93531.4	520.2	10.92
93535.4	523.2	10.99
93539.4	521.7	10.96
93543.4	521.9	10.96
93547.4	525.4	11.03
93551.4	530.1	11.13
93555.4	532.1	11.17
93559.4	534.7	11.23
93563.4	536.9	11.27
93567.4	538.3	11.30
93571.4	539.3	11.33
93575.4	541.7	11.37
93579.4	543.1	11.41
93583.4	545.0	11.45
93587.4	546.6	11.48
93591.4	548.8	11.52
93595.4	550.2	11.55
93599.4	552.6	11.60
93603.4	554.9	11.65
93607.4	558.3	11.73
93611.4	560.3	11.77
93615.4	561.7	11.80
93619.4	562.4	11.81
93623.4	563.4	11.83
93627.4	562.8	11.82
93631.4	562.6	11.81
93635.4	561.6	11.79
93639.4	560.2	11.76
93643.4	558.3	11.73
93647.4	560.0	11.76
93651.4	559.2	11.74
93655.4	554.4	11.64
93659.4	549.6	11.54
93663.4	549.6	11.54
93667.4	550.3	11.56
93671.4	550.5	11.56
93675.4	548.8	11.52
93679.4	546.0	11.47
93683.4	542.4	11.39
93687.4	541.0	11.36
93691.4	538.9	11.32
93695.4	537.7	11.29
93699.4	536.2	11.26
93703.4	535.7	11.25
93707.4	535.2	11.24
93711.4	535.1	11.24
93715.4	534.4	11.22
93719.4	534.6	11.23
93723.4	534.4	11.22
93727.4	535.8	11.25
93731.3	537.3	11.28
93735.4	539.0	11.32
93739.4	538.8	11.31
93743.3	538.8	11.32
93747.4	538.4	11.31
93751.4	538.4	11.31
93755.4	536.9	11.27
93759.4	535.8	11.25
93763.4	534.6	11.23
93767.4	533.4	11.20
93771.4	530.1	11.13
93775.3	529.2	11.11
93779.4	529.0	11.11
93783.4	528.8	11.10
93787.3	528.7	11.10
93791.3	531.4	11.16
93795.3	533.2	11.20
93799.4	534.1	11.22
93803.3	533.7	11.21
93807.4	534.5	11.22
93811.4	534.8	11.23
93815.3	535.1	11.24
93819.4	534.7	11.23
93823.4	535.3	11.24
93827.3	533.5	11.20
93831.3	526.3	11.05
93835.4	515.3	10.82
93839.4	510.2	10.71
93843.3	507.3	10.65
93847.3	506.2	10.63
93851.3	509.5	10.70
93855.3	514.5	10.81
93859.3	514.7	10.81
93863.3	513.9	10.79
93867.3	512.1	10.75
93871.3	510.0	10.71
93875.3	506.8	10.64
93879.3	502.3	10.55
93883.3	497.3	10.44
93887.3	496.6	10.43
93891.3	498.8	10.47
93895.4	501.5	10.53
93899.3	500.9	10.52
93903.3	497.7	10.45
93907.3	494.0	10.37
93911.3	497.1	10.44
93915.3	503.4	10.57
93919.3	507.1	10.65
93923.3	508.0	10.67
93927.3	509.5	10.70
93931.3	509.5	10.70
93935.3	509.9	10.71
93939.3	510.0	10.71
93943.3	511.0	10.73
93947.3	514.4	10.80
93951.4	519.3	10.90
93955.3	518.6	10.89
93959.3	519.0	10.90
93963.3	521.6	10.95
93967.3	524.2	11.01
93971.3	525.1	11.03
93975.3	526.0	11.05
93979.3	524.5	11.01
93983.3	521.4	10.95
93987.3	516.5	10.85
93991.3	512.5	10.76
93995.3	509.8	10.71
93999.3	509.8	10.71
94003.3	510.9	10.73
94007.3	516.0	10.84
94011.3	520.7	10.93
94015.3	521.8	10.96
94019.3	519.5	10.91
94023.3	517.0	10.86
94027.3	513.9	10.79
94031.3	514.4	10.80
94035.3	514.3	10.80
94039.3	512.9	10.77
94043.4	511.9	10.75
94047.3	513.1	10.78
94051.3	514.0	10.79
94055.3	517.6	10.87
94059.3	522.8	10.98
94063.3	525.0	11.02
94067.3	521.0	10.94
94071.3	513.8	10.79
94075.3	505.8	10.62
94079.3	501.4	10.53
94083.3	501.5	10.53
94087.3	501.8	10.54
94091.3	495.6	10.41
94095.3	494.9	10.39
94099.3	498.8	10.47
94103.3	496.7	10.43
94107.3	490.6	10.30
94111.3	488.1	10.25
94115.3	484.4	10.17
94119.3	478.2	10.04
94123.3	473.3	9.94
94127.3	475.5	9.99
94131.3	480.0	10.08
94135.3	481.5	10.11
94139.3	477.4	10.03
94143.3	471.9	9.91
94147.3	467.6	9.82
94151.3	465.7	9.78
94155.3	464.8	9.76
94159.3	465.5	9.78
94163.3	466.0	9.79
94167.3	466.4	9.79
94171.3	466.0	9.79
94175.3	466.2	9.79
94179.3	466.1	9.79
94183.3	467.2	9.81
94187.3	467.6	9.82
94191.3	468.4	9.84
94195.3	468.6	9.84
94199.3	469.2	9.85
94203.3	469.1	9.85
94207.3	469.4	9.86
94211.3	468.6	9.84
94215.3	468.1	9.83
94219.3	464.8	9.76
94223.3	460.2	9.66
94227.3	458.0	9.62
94231.3	458.1	9.62
94235.3	458.4	9.63
94239.3	462.4	9.71
94243.3	466.5	9.80
94247.3	469.8	9.87
94251.3	471.3	9.90
94255.3	472.4	9.92
94259.3	472.1	9.91
94263.3	469.2	9.85
94267.3	462.9	9.72
94271.3	458.8	9.64
94275.3	453.2	9.52
94279.3	450.0	9.45
94283.3	455.7	9.57
94287.3	459.6	9.65
94291.3	453.5	9.52
94295.3	447.6	9.40
94299.3	445.8	9.36
94303.3	446.6	9.38
94307.3	447.2	9.39
94311.3	448.0	9.41
94315.3	446.9	9.39
94319.3	443.7	9.32
94323.3	441.0	9.26
94327.3	444.1	9.33
94331.3	449.4	9.44
94335.3	456.8	9.59
94339.3	461.0	9.68
94343.3	457.0	9.60
94347.3	451.8	9.49
94351.3	456.5	9.59
94355.3	462.6	9.71
94359.3	462.9	9.72
94363.3	458.5	9.63
94367.3	450.7	9.47
94371.3	436.7	9.17
94375.3	423.0	8.88
94379.3	418.0	8.78
94383.3	420.0	8.82
94387.3	423.7	8.90
94391.3	423.7	8.90
94395.2	422.8	8.88
94399.3	429.1	9.01
94403.3	432.4	9.08
94407.3	431.7	9.07
94411.3	433.5	9.10
94415.3	438.6	9.21
94419.3	441.1	9.26
94423.3	437.7	9.19
94427.3	432.6	9.08
94431.3	436.3	9.16
94435.3	444.0	9.32
94439.3	448.5	9.42
94443.2	453.5	9.52
94447.3	460.7	9.67
94451.3	463.3	9.73
94455.3	463.9	9.74
94459.3	465.8	9.78
94463.2	465.8	9.78
94467.2	462.1	9.70
94471.3	460.9	9.68
94475.3	459.7	9.65
94479.3	459.7	9.65
94483.2	462.5	9.71
94487.3	467.1	9.81
94491.3	470.0	9.87
94495.2	471.5	9.90
94499.3	470.4	9.88
94503.2	469.5	9.86
94507.2	468.7	9.84
94511.2	469.0	9.85
94515.2	468.4	9.84
94519.3	468.7	9.84
94523.3	470.0	9.87
94527.3	471.3	9.90
94531.2	471.3	9.90
94535.2	472.1	9.91
94539.2	470.6	9.88
94543.2	468.2	9.83
94547.2	467.5	9.82
94551.3	469.2	9.85
94555.3	471.2	9.90
94559.2	473.3	9.94
94563.2	473.0	9.93
94567.2	473.1	9.93
94571.2	473.0	9.93
94575.2	474.7	9.97
94579.2	477.4	10.03
94583.2	479.9	10.08
94587.2	479.6	10.07
94591.2	478.4	10.05
94595.2	476.1	10.00
94599.2	472.4	9.92
94603.2	467.6	9.82
94607.2	467.6	9.82
94611.3	469.3	9.85
94615.3	468.9	9.85
94619.3	467.4	9.82
94623.2	467.5	9.82
94627.2	467.5	9.82
94631.2	466.6	9.80
94635.2	462.7	9.72
94639.3	460.2	9.66
94643.3	460.2	9.67
94647.2	466.4	9.79
94651.2	473.3	9.94
94655.2	472.8	9.93
94659.2	467.1	9.81
94663.2	465.3	9.77
94667.2	464.9	9.76
94671.3	465.9	9.78
94675.2	465.4	9.77
94679.2	463.2	9.73
94683.2	465.8	9.78
94687.2	473.8	9.95
94691.3	476.5	10.01
94695.2	475.6	9.99
94699.2	473.3	9.94
94703.2	471.3	9.90
94707.2	472.1	9.91
94711.2	475.8	9.99
94715.3	477.7	10.03
94719.2	479.5	10.07
94723.3	480.2	10.08
94727.3	480.3	10.09
94731.2	479.4	10.07
94735.2	479.4	10.07
94739.3	479.4	10.07
94743.2	479.4	10.07
94747.2	478.1	10.04
94751.2	475.8	9.99
94755.3	471.5	9.90
94759.2	470.6	9.88
94763.2	471.6	9.90
94767.2	472.0	9.91
94771.2	471.7	9.91
94775.2	471.8	9.91
94779.2	469.8	9.87
94783.2	467.6	9.82
94787.2	465.6	9.78
94791.2	464.7	9.76
94795.2	463.2	9.73
94799.2	462.3	9.71
94803.2	461.2	9.69
94807.2	461.4	9.69
94811.2	461.3	9.69
94815.2	461.2	9.69
94819.2	461.0	9.68
94823.2	463.3	9.73
94827.2	466.0	9.79
94831.2	466.4	9.79
94835.2	463.6	9.74
94839.2	463.0	9.72
94843.2	464.3	9.75
94847.2	465.4	9.77
94851.2	465.3	9.77
94855.2	466.9	9.81
94859.2	467.7	9.82
94863.2	471.9	9.91
94867.2	479.2	10.06
94871.2	484.8	10.18
94875.2	487.7	10.24
94879.2	489.5	10.28
94883.2	485.8	10.20
94887.2	479.5	10.07
94891.2	475.6	9.99
94895.2	476.3	10.00
94899.2	476.1	10.00
94903.2	475.1	9.98
94907.2	472.7	9.93
94911.2	471.9	9.91
94915.2	473.5	9.94
94919.2	476.9	10.01
94923.2	476.8	10.01
94927.2	476.4	10.00
94931.2	477.0	10.02
94935.2	479.2	10.06
94939.2	483.7	10.16
94943.2	489.6	10.28
94947.1	491.8	10.33
94951.2	492.4	10.34
94955.2	491.2	10.32
94959.1	489.7	10.28
94963.2	489.5	10.28
94967.2	491.4	10.32
94971.2	493.3	10.36
94975.2	495.2	10.40
94979.2	493.7	10.37
94983.2	491.0	10.31
94987.2	489.6	10.28
94991.2	492.1	10.33
94995.2	495.2	10.40
94999.2	497.2	10.44
95003.2	495.6	10.41
95007.2	492.6	10.34
95011.2	489.9	10.29
95015.2	489.1	10.27
95019.2	487.7	10.24
95023.2	486.9	10.23
95027.1	484.5	10.18
95031.2	482.6	10.13
95035.2	481.3	10.11
95039.2	479.8	10.07
95043.1	475.9	9.99
95047.2	473.2	9.94
95051.2	471.7	9.91
95055.1	471.1	9.89
95059.2	467.6	9.82
95063.1	463.8	9.74
95067.2	462.9	9.72
95071.2	464.0	9.74
95075.2	464.2	9.75
95079.2	464.8	9.76
95083.2	463.4	9.73
95087.2	460.8	9.68
95091.2	457.8	9.61
95095.2	460.7	9.68
95099.2	466.1	9.79
95103.2	469.5	9.86
95107.1	469.8	9.87
95111.1	471.0	9.89
95115.1	472.2	9.92
95119.2	471.8	9.91
95123.1	474.0	9.95
95127.1	481.6	10.11
95131.1	485.8	10.20
95135.1	488.9	10.27
95139.2	492.5	10.34
95143.1	495.7	10.41
95147.1	496.3	10.42
95151.1	497.1	10.44
95155.1	501.7	10.54
95159.2	504.4	10.59
95163.1	502.6	10.55
95167.2	504.5	10.59
95171.1	507.1	10.65
95175.2	509.2	10.69
95179.1	511.5	10.74
95183.1	515.9	10.83
95187.1	516.6	10.85
95191.1	511.2	10.73
95195.1	505.4	10.61
95199.1	504.7	10.60
95203.1	501.7	10.54
95207.1	501.4	10.53
95211.1	505.5	10.61
95215.1	507.6	10.66
95219.1	504.7	10.60
95223.1	496.8	10.43
95227.1	491.5	10.32
95231.1	502.8	10.56
95235.1	510.4	10.72
95239.1	505.8	10.62
95243.1	502.3	10.55
95247.1	501.1	10.52
95251.1	497.3	10.44
95255.1	494.9	10.39
95259.1	494.3	10.38
95263.1	495.8	10.41
95267.1	497.7	10.45
95271.1	501.8	10.54
95275.1	502.5	10.55
95279.1	505.5	10.61
95283.1	510.3	10.72
95287.1	514.2	10.80
95291.1	515.5	10.83
95295.1	516.5	10.85
95299.1	517.4	10.86
95303.1	515.5	10.83
95307.1	512.9	10.77
95311.1	517.0	10.86
95315.1	520.4	10.93
95319.1	521.2	10.95
95323.1	521.4	10.95
95327.1	522.7	10.98
95331.1	522.4	10.97
95335.1	523.3	10.99
95339.1	523.2	10.99
95343.1	522.3	10.97
95347.1	518.2	10.88
95351.1	515.4	10.82
95355.1	518.7	10.89
95359.1	523.5	10.99
95363.1	524.2	11.01
95367.1	524.0	11.00
95371.1	523.6	11.00
95375.1	525.3	11.03
95379.1	525.3	11.03
95383.1	524.9	11.02
95387.1	526.2	11.05
95391.1	528.2	11.09
95395.1	529.0	11.11
95399.1	529.7	11.12
95403.1	528.8	11.10
95407.1	528.3	11.09
95411.1	527.0	11.07
95415.1	527.5	11.08
95419.1	527.6	11.08
95423.1	528.0	11.09
95427.1	527.6	11.08
95431.1	528.5	11.10
95435.1	527.7	11.08
95439.1	526.9	11.06
95443.1	527.5	11.08
95447.1	528.7	11.10
95451.1	528.5	11.10
95455.1	529.3	11.12
95459.1	527.4	11.08
95463.1	525.5	11.04
95467.1	524.0	11.00
95471.1	520.8	10.94
95475.1	515.9	10.83
95479.1	517.2	10.86
95483.1	522.8	10.98
95487.1	522.3	10.97
95491.1	513.4	10.78
95495.1	509.6	10.70
95499.1	510.3	10.72
95503.1	511.1	10.73
95507.1	513.2	10.78
95511.1	516.7	10.85
95515.1	513.8	10.79
95519.1	510.0	10.71
95523.1	515.3	10.82
95527.1	519.3	10.91
95531.1	517.8	10.87
95535.1	523.3	10.99
95539.1	528.2	11.09
95543.1	528.6	11.10
95547.1	528.1	11.09
95551.1	528.7	11.10
95555.0	529.1	11.11
95559.0	530.2	11.13
95563.1	530.1	11.13
95567.1	526.4	11.06
95571.1	520.4	10.93
95575.1	520.8	10.94
95579.1	522.2	10.97
95583.1	518.0	10.88
95587.1	516.1	10.84
95591.1	521.8	10.96
95595.1	527.1	11.07
95599.1	529.9	11.13
95603.1	529.4	11.12
95607.1	529.3	11.12
95611.1	529.7	11.12
95615.1	528.6	11.10
95619.1	526.7	11.06
95623.1	529.2	11.11
95627.1	531.1	11.15
95631.0	530.1	11.13
95635.0	529.4	11.12
95639.0	528.8	11.10
95643.0	519.9	10.92
95647.0	510.1	10.71
95651.0	509.1	10.69
95655.1	514.0	10.79
95659.0	513.7	10.79
95663.0	509.1	10.69
95667.0	505.6	10.62
95671.0	505.3	10.61
95675.0	504.9	10.60
95679.0	504.8	10.60
95683.0	504.2	10.59
95687.0	502.6	10.55
95691.0	499.2	10.48
95695.0	497.2	10.44
95699.0	495.8	10.41
95703.0	495.7	10.41
95707.0	496.2	10.42
95711.0	496.2	10.42
95715.0	496.2	10.42
95719.0	498.0	10.46
95723.0	497.2	10.44
95727.0	495.7	10.41
95731.0	495.5	10.41
95735.0	499.2	10.48
95739.0	505.6	10.62
95743.0	510.1	10.71
95747.0	509.4	10.70
95751.0	507.9	10.67
95755.0	508.1	10.67
95759.0	511.2	10.74
95763.0	514.8	10.81
95767.0	517.5	10.87
95771.0	518.3	10.88
95775.0	520.9	10.94
95779.0	524.7	11.02
95783.0	526.9	11.07
95787.0	525.8	11.04
95791.0	524.7	11.02
95795.0	523.7	11.00
95799.0	520.0	10.92
95803.0	513.2	10.78
95807.0	513.2	10.78
95811.0	518.1	10.88
95815.0	522.3	10.97
95819.0	522.4	10.97
95823.0	522.7	10.98
95827.0	522.6	10.98
95831.0	521.9	10.96
95835.0	520.4	10.93
95839.0	520.0	10.92
95843.0	518.6	10.89
95847.0	517.1	10.86
95851.0	516.1	10.84
95855.0	518.2	10.88
95859.0	519.3	10.90
95863.0	517.6	10.87
95867.0	515.1	10.82
95871.0	514.6	10.81
95875.0	513.6	10.79
95879.0	511.7	10.75
95883.0	508.0	10.67
95887.0	505.1	10.61
95891.0	503.3	10.57
95895.0	502.6	10.55
95899.0	500.7	10.51
95903.0	498.9	10.48
95907.0	497.7	10.45
95911.0	497.9	10.46
95915.0	498.2	10.46
95919.0	499.5	10.49
95923.0	499.7	10.49
95927.0	500.1	10.50
95931.0	499.8	10.49
95935.0	500.0	10.50
95939.0	499.3	10.48
95943.0	498.8	10.48
95947.0	498.2	10.46
95951.0	498.2	10.46
95955.0	497.6	10.45
95959.0	497.8	10.45
95963.0	496.9	10.43
95967.0	496.0	10.42
95971.0	494.7	10.39
95975.0	494.2	10.38
95979.0	493.1	10.36
95983.0	492.7	10.35
95987.0	491.1	10.31
95991.0	490.1	10.29
95995.0	488.8	10.27
95999.0	487.5	10.24
96003.0	485.5	10.20
96007.0	486.2	10.21
96011.0	487.4	10.24
96015.0	489.9	10.29
96019.0	491.8	10.33
96023.0	493.0	10.35
96027.0	492.1	10.33
96031.0	492.2	10.34
96035.0	491.5	10.32
96039.0	490.3	10.30
96043.0	487.8	10.24
96047.0	488.0	10.25
96051.0	489.0	10.27
96055.0	489.9	10.29
96059.0	491.4	10.32
96063.0	495.0	10.40
96067.0	497.8	10.45
96071.0	500.1	10.50
96075.0	500.4	10.51
96079.0	502.1	10.54
96083.0	502.9	10.56
96087.0	503.7	10.58
96091.0	503.8	10.58
96095.0	504.2	10.59
96099.0	504.3	10.59
96103.0	505.1	10.61
96107.0	505.2	10.61
96111.0	505.3	10.61
96115.0	505.0	10.61
96118.9	505.6	10.62
96123.0	505.3	10.61
96127.0	505.6	10.62
96131.0	505.3	10.61
96135.0	505.4	10.61
96139.0	504.8	10.60
96143.0	506.0	10.63
96147.0	507.5	10.66
96151.0	509.5	10.70
96155.0	509.1	10.69
96159.0	508.4	10.68
96163.0	505.9	10.62
96166.9	502.5	10.55
96170.9	499.2	10.48
96175.0	494.5	10.38
96178.9	486.9	10.23
96182.9	482.1	10.12
96187.0	479.3	10.07
96190.9	478.7	10.05
96194.9	477.8	10.03
96198.9	477.1	10.02
96202.9	474.8	9.97
96206.9	474.5	9.96
96211.0	476.4	10.00
96214.9	479.3	10.07
96218.9	480.6	10.09
96222.9	482.9	10.14
96226.9	485.2	10.19
96230.9	486.6	10.22
96234.9	486.3	10.21
96238.9	485.9	10.20
96242.9	484.1	10.17
96246.9	482.7	10.14
96250.9	481.0	10.10
96254.9	480.6	10.09
96258.9	481.6	10.11
96262.9	486.8	10.22
96267.0	493.6	10.36
96270.9	499.4	10.49
96274.9	502.0	10.54
96278.9	503.8	10.58
96282.9	504.8	10.60
96286.9	506.7	10.64
96290.9	507.8	10.66
96294.9	509.6	10.70
96298.9	510.8	10.73
96302.9	512.1	10.75
96306.9	511.6	10.74
96310.9	510.5	10.72
96314.9	507.8	10.66
96318.9	506.2	10.63
96322.9	505.0	10.61
96326.9	504.0	10.58
96330.9	501.5	10.53
96334.9	500.1	10.50
96338.9	497.9	10.46
96342.9	496.0	10.42
96346.9	493.7	10.37
96350.9	490.9	10.31
96354.9	487.1	10.23
96358.9	485.4	10.19
96362.9	484.0	10.16
96366.9	483.3	10.15
96370.9	481.9	10.12
96374.9	480.9	10.10
96378.9	479.2	10.06
96382.9	477.7	10.03
96386.9	474.9	9.97
96390.9	471.7	9.91
96394.9	466.9	9.81
96398.9	463.0	9.72
96402.9	460.0	9.66
96406.9	457.8	9.61
96410.9	456.1	9.58
96414.9	458.2	9.62
96418.9	459.1	9.64
96422.9	459.2	9.64
96426.9	460.0	9.66
96430.9	458.1	9.62
96434.9	453.5	9.52
96438.9	454.8	9.55
96442.9	454.5	9.54
96446.9	448.3	9.41
96450.9	440.5	9.25
96454.9	435.9	9.15
96458.9	430.3	9.04
96462.9	417.4	8.77
96466.9	400.1	8.40
96470.9	389.3	8.17
96474.9	381.3	8.01
96478.9	375.4	7.88
96482.9	369.9	7.77
96486.9	364.5	7.65
96490.9	359.5	7.55
96494.9	354.2	7.44
96498.9	349.9	7.35
96502.9	350.7	7.36
96506.9	350.4	7.36
96510.9	349.0	7.33
96514.9	348.0	7.31
96518.9	347.4	7.30
96522.9	348.6	7.32
96526.9	353.8	7.43
96530.9	359.2	7.54
96534.9	363.1	7.62
96538.9	363.8	7.64
96542.9	364.6	7.66
96546.9	365.0	7.66
96550.9	365.6	7.68
96554.9	365.2	7.67
96558.9	364.9	7.66
96562.9	364.5	7.65
96566.9	365.5	7.68
96570.9	367.2	7.71
96574.9	369.4	7.76
96578.9	371.6	7.80
96582.9	373.7	7.85
96586.9	374.0	7.85
96590.9	376.3	7.90
96594.9	381.0	8.00
96598.9	387.2	8.13
96602.9	392.1	8.23
96606.9	395.3	8.30
96610.9	396.7	8.33
96614.9	398.7	8.37
96618.9	399.4	8.39
96622.9	394.1	8.28
96626.9	384.0	8.06
96630.9	380.3	7.99
96634.9	381.3	8.01
96638.9	383.9	8.06
96642.9	387.2	8.13
96646.9	391.0	8.21
96650.9	393.5	8.26
96654.9	395.1	8.30
96658.9	395.6	8.31
96662.9	397.0	8.34
96666.9	398.2	8.36
96670.9	399.6	8.39
96674.9	399.8	8.40
96678.9	399.7	8.39
96682.9	398.8	8.38
96686.9	398.4	8.37
96690.9	398.2	8.36
96694.9	399.8	8.39
96698.9	401.5	8.43
96702.9	404.2	8.49
96706.9	406.2	8.53
96710.9	406.6	8.54
96714.9	405.2	8.51
96718.9	402.3	8.45
96722.8	396.8	8.33
96726.9	395.0	8.29
96730.8	398.7	8.37
96734.8	405.0	8.50
96738.8	406.3	8.53
96742.8	406.4	8.53
96746.9	407.9	8.57
96750.9	411.6	8.64
96754.9	417.2	8.76
96758.9	423.5	8.89
96762.8	425.9	8.94
96766.9	424.8	8.92
96770.8	425.7	8.94
96774.9	431.5	9.06
96778.8	436.7	9.17
96782.8	440.0	9.24
96786.8	438.8	9.21
96790.8	435.8	9.15
96794.8	434.5	9.12
96798.8	437.0	9.18
96802.8	439.8	9.24
96806.8	441.7	9.27
96810.9	440.7	9.25
96814.8	439.6	9.23
96818.8	437.7	9.19
96822.8	436.1	9.16
96826.8	434.0	9.11
96830.8	432.7	9.09
96834.8	430.2	9.03
96838.8	428.8	9.01
96842.8	427.7	8.98
96846.8	428.2	8.99
96850.8	429.0	9.01
96854.8	429.5	9.02
96858.8	427.6	8.98
96862.8	427.2	8.97
96866.8	428.2	8.99
96870.8	430.7	9.04
96874.8	432.9	9.09
96878.8	434.2	9.12
96882.8	434.1	9.12
96886.8	435.7	9.15
96890.8	436.2	9.16
96894.9	438.9	9.22
96898.8	443.6	9.32
96902.8	447.1	9.39
96906.8	447.2	9.39
96910.8	447.9	9.41
96914.8	450.0	9.45
96918.8	454.2	9.54
96922.8	460.4	9.67
96926.8	470.3	9.88
96930.8	484.5	10.17
96934.8	504.4	10.59
96938.8	521.2	10.94
96942.8	527.5	11.08
96946.8	523.5	10.99
96950.8	517.3	10.86
96954.8	506.9	10.64
96958.8	494.9	10.39
96962.8	487.5	10.24
96966.8	483.7	10.16
96970.8	473.3	9.94
96974.8	457.8	9.61
96978.8	444.7	9.34
96982.8	437.0	9.18
96986.8	428.6	9.00
96990.8	420.1	8.82
96994.8	406.3	8.53
96998.8	386.2	8.11
97002.8	370.3	7.78
97006.8	364.1	7.65
97010.8	360.7	7.58
97014.8	360.3	7.57
97018.8	362.0	7.60
97022.8	366.5	7.70
97026.8	372.4	7.82
97030.8	388.1	8.15
97034.8	415.1	8.72
97038.8	439.8	9.24
97042.8	452.5	9.50
97046.8	458.3	9.62
97050.8	460.4	9.67
97054.8	460.9	9.68
97058.8	457.2	9.60
97062.8	453.3	9.52
97066.8	451.2	9.48
97070.8	454.3	9.54
97074.8	460.5	9.67
97078.8	468.8	9.84
97082.8	478.4	10.05
97086.8	487.4	10.24
97090.8	494.2	10.38
97094.8	498.5	10.47
97098.8	498.9	10.48
97102.8	501.3	10.53
97106.8	502.4	10.55
97110.8	500.6	10.51
97114.8	492.8	10.35
97118.8	487.0	10.23
97122.8	489.6	10.28
97126.8	493.7	10.37
97130.8	491.7	10.33
97134.8	490.0	10.29
97138.8	489.1	10.27
97142.8	490.2	10.29
97146.8	491.9	10.33
97150.8	492.5	10.34
97154.8	489.0	10.27
97158.8	482.2	10.13
97162.8	471.7	9.91
97166.8	462.2	9.71
97170.8	450.1	9.45
97174.8	423.6	8.90
97178.8	394.5	8.29
97182.8	389.3	8.18
97186.8	390.8	8.21
97190.8	383.8	8.06
97194.8	376.5	7.91
97198.8	390.9	8.21
97202.8	407.4	8.56
97206.8	400.5	8.41
97210.8	378.9	7.96
97214.8	347.6	7.30
97218.8	335.9	7.05
97222.8	361.1	7.58
97226.8	391.2	8.22
97230.8	409.8	8.61
97234.8	421.6	8.85
97238.8	430.9	9.05
97242.8	433.1	9.09
97246.8	425.3	8.93
97250.8	410.1	8.61
97254.8	399.0	8.38
97258.8	390.5	8.20
97262.8	381.3	8.01
97266.8	366.9	7.70
97270.8	350.3	7.36
97274.8	336.6	7.07
97278.8	331.7	6.97
97282.8	336.7	7.07
97286.8	331.7	6.97
97290.8	314.3	6.60
97294.8	332.1	6.97
97298.8	374.4	7.86
97302.8	392.8	8.25
97306.8	396.6	8.33
97310.8	402.8	8.46
97314.8	406.3	8.53
97318.8	411.6	8.64
97322.8	417.6	8.77
97326.8	420.8	8.84
97330.7	421.1	8.84
97334.7	422.4	8.87
97338.7	422.6	8.87
97342.7	422.5	8.87
97346.8	421.7	8.86
97350.8	421.5	8.85
97354.7	421.6	8.85
97358.8	423.0	8.88
97362.8	423.9	8.90
97366.8	424.2	8.91
97370.8	423.5	8.89
97374.8	423.3	8.89
97378.7	423.1	8.89
97382.7	423.8	8.90
97386.8	423.7	8.90
97390.7	424.3	8.91
97394.7	424.1	8.91
97398.7	424.7	8.92
97402.7	425.1	8.93
97406.7	425.4	8.93
97410.7	425.3	8.93
97414.7	425.8	8.94
97418.7	425.6	8.94
97422.8	426.5	8.96
97426.7	426.0	8.95
97430.8	425.6	8.94
97434.7	425.5	8.94
97438.7	425.8	8.94
97442.7	425.4	8.93
97446.7	425.4	8.93
97450.7	425.2	8.93
97454.7	425.1	8.93
97458.7	424.0	8.90
97462.7	423.2	8.89
97466.7	422.4	8.87
97470.7	422.6	8.87
97474.7	422.0	8.86
97478.7	421.3	8.85
97482.7	419.4	8.81
97486.8	418.7	8.79
97490.7	417.8	8.77
97494.7	417.7	8.77
97498.7	417.4	8.77
97502.7	417.9	8.78
97506.7	418.7	8.79
97510.7	421.0	8.84
97514.7	423.3	8.89
97518.7	426.0	8.95
97522.7	426.9	8.97
97526.7	427.3	8.97
97530.7	427.1	8.97
97534.7	427.3	8.97
97538.8	426.5	8.96
97542.7	426.0	8.95
97546.7	424.9	8.92
97550.7	425.1	8.93
97554.7	425.6	8.94
97558.7	425.6	8.94
97562.7	424.1	8.91
97566.7	423.3	8.89
97570.7	422.1	8.86
97574.7	422.3	8.87
97578.7	422.3	8.87
97582.7	423.1	8.88
97586.7	423.1	8.89
97590.7	423.3	8.89
97594.7	422.6	8.88
97598.7	422.9	8.88
97602.7	423.1	8.88
97606.7	423.4	8.89
97610.7	422.5	8.87
97614.7	422.1	8.86
97618.7	421.3	8.85
97622.7	421.5	8.85
97626.7	421.5	8.85
97630.7	421.6	8.85
97634.7	420.7	8.84
97638.7	421.3	8.85
97642.7	422.4	8.87
97646.7	423.5	8.89
97650.7	422.9	8.88
97654.7	422.8	8.88
97658.7	422.8	8.88
97662.7	423.3	8.89
97666.7	423.1	8.88
97670.7	423.5	8.89
97674.7	422.7	8.88
97678.7	422.9	8.88
97682.7	423.0	8.88
97686.7	424.1	8.91
97690.7	424.3	8.91
97694.7	424.5	8.91
97698.7	424.0	8.90
97702.7	423.8	8.90
97706.7	423.1	8.88
97710.7	422.9	8.88
97714.7	422.4	8.87
97718.7	422.8	8.88
97722.7	423.1	8.88
97726.7	423.3	8.89
97730.7	422.4	8.87
97734.7	422.4	8.87
97738.7	422.5	8.87
97742.7	423.6	8.90
97746.7	423.7	8.90
97750.7	424.2	8.91
97754.7	424.9	8.92
97758.7	427.5	8.98
97762.7	430.8	9.05
97766.7	434.1	9.12
97770.7	436.0	9.16
97774.7	438.1	9.20
97778.7	439.4	9.23
97782.7	440.3	9.25
97786.7	439.8	9.24
97790.7	439.6	9.23
97794.7	437.6	9.19
97798.7	435.2	9.14
97802.7	432.9	9.09
97806.7	431.5	9.06
97810.7	428.3	9.00
97814.7	424.6	8.92
97818.7	424.0	8.90
97822.7	427.8	8.98
97826.7	431.0	9.05
97830.7	432.3	9.08
97834.7	431.4	9.06
97838.7	430.4	9.04
97842.7	427.7	8.98
97846.7	421.9	8.86
97850.7	412.0	8.65
97854.7	402.0	8.44
97858.7	393.5	8.26
97862.7	388.4	8.16
97866.7	384.7	8.08
97870.7	379.3	7.97
97874.7	368.4	7.74
97878.7	353.7	7.43
97882.7	343.4	7.21
97886.7	340.2	7.15
97890.7	332.3	6.98
97894.7	322.7	6.78
97898.7	318.7	6.69
97902.7	318.6	6.69
97906.7	320.9	6.74
97910.7	326.9	6.87
97914.7	334.4	7.02
97918.7	340.1	7.14
97922.7	341.2	7.16
97926.7	340.0	7.14
97930.7	338.9	7.12
97934.7	339.6	7.13
97938.7	340.2	7.14
97942.6	340.1	7.14
97946.6	339.2	7.12
97950.6	339.8	7.14
97954.6	339.9	7.14
97958.6	339.9	7.14
97962.6	339.8	7.14
97966.6	339.9	7.14
97970.6	339.8	7.14
97974.6	340.1	7.14
97978.6	339.7	7.13
97982.6	339.7	7.13
97986.7	339.3	7.12
97990.6	339.3	7.13
97994.6	339.3	7.13
97998.6	339.7	7.13
98002.6	340.8	7.16
98006.6	342.1	7.18
98010.7	340.6	7.15
98014.6	337.9	7.10
98018.6	335.5	7.05
98022.6	335.6	7.05
98026.6	336.9	7.08
98030.6	340.5	7.15
98034.6	344.0	7.22
98038.6	344.2	7.23
98042.6	342.0	7.18
98046.6	341.6	7.17
98050.6	341.2	7.17
98054.6	341.3	7.17
98058.6	340.8	7.16
98062.6	340.3	7.15
98066.6	339.7	7.13
98070.6	339.7	7.13
98074.6	339.5	7.13
98078.6	339.7	7.13
98082.6	338.4	7.11
98086.6	336.7	7.07
98090.6	334.4	7.02
98094.6	332.2	6.98
98098.6	331.1	6.95
98102.6	331.4	6.96
98106.6	330.8	6.95
98110.6	331.4	6.96
98114.6	332.8	6.99
98118.6	335.1	7.04
98122.6	337.5	7.09
98126.6	340.5	7.15
98130.6	342.1	7.19
98134.6	343.1	7.20
98138.6	342.7	7.20
98142.6	343.3	7.21
98146.6	344.4	7.23
98150.6	345.4	7.25
98154.6	345.2	7.25
98158.6	345.3	7.25
98162.6	345.2	7.25
98166.6	346.1	7.27
98170.6	346.7	7.28
98174.6	347.4	7.29
98178.6	347.0	7.29
98182.6	347.3	7.29
98186.6	347.4	7.30
98190.6	347.3	7.29
98194.6	346.2	7.27
98198.6	344.1	7.23
98202.6	340.2	7.14
98206.6	336.3	7.06
98210.6	333.1	7.00
98214.6	333.8	7.01
98218.6	337.4	7.08
98222.6	341.4	7.17
98226.6	345.1	7.25
98230.6	349.4	7.34
98234.6	351.0	7.37
98238.6	349.4	7.34
98242.6	345.9	7.26
98246.6	344.0	7.22
98250.6	342.0	7.18
98254.6	340.3	7.15
98258.6	338.8	7.11
98262.6	339.0	7.12
98266.6	340.4	7.15
98270.6	340.5	7.15
98274.6	339.9	7.14
98278.6	340.7	7.15
98282.6	339.4	7.13
98286.6	338.4	7.11
98290.6	338.4	7.11
98294.6	338.4	7.11
98298.6	338.2	7.10
98302.6	340.9	7.16
98306.6	344.2	7.23
98310.6	346.6	7.28
98314.6	348.1	7.31
98318.6	352.1	7.40
98322.6	356.3	7.48
98326.6	358.0	7.52
98330.6	358.6	7.53
98334.6	360.4	7.57
98338.6	361.1	7.58
98342.6	361.1	7.58
98346.6	359.8	7.56
98350.6	359.0	7.54
98354.6	353.7	7.43
98358.6	343.2	7.21
98362.6	335.5	7.05
98366.6	334.3	7.02
98370.6	335.9	7.05
98374.6	344.9	7.24
98378.6	360.1	7.56
98382.6	375.8	7.89
98386.6	389.4	8.18
98390.6	399.4	8.39
98394.6	404.8	8.50
98398.6	406.8	8.54
98402.6	408.2	8.57
98406.6	417.8	8.77
98410.6	425.7	8.94
98414.6	428.4	9.00
98418.6	425.5	8.94
98422.6	417.2	8.76
98426.6	412.4	8.66
98430.6	413.0	8.67
98434.6	415.0	8.72
98438.6	423.8	8.90
98442.6	436.9	9.18
98446.6	445.3	9.35
98450.6	439.8	9.24
98454.6	432.2	9.08
98458.6	432.4	9.08
98462.6	430.4	9.04
98466.6	409.5	8.60
98470.6	383.5	8.05
98474.6	380.0	7.98
98478.6	385.6	8.10
98482.6	398.1	8.36
98486.6	435.3	9.14
98490.6	466.2	9.79
98494.6	479.1	10.06
98498.6	483.5	10.15
98502.6	484.6	10.18
98506.6	488.3	10.26
98510.6	493.8	10.37
98514.6	489.6	10.28
98518.6	466.8	9.80
98522.6	422.6	8.87
98526.6	380.4	7.99
98530.6	364.7	7.66
98534.6	364.4	7.65
98538.6	365.5	7.68
98542.6	373.3	7.84
98546.6	383.4	8.05
98550.6	393.1	8.26
98554.5	395.1	8.30
98558.5	388.9	8.17
98562.5	387.0	8.13
98566.5	388.3	8.15
98570.5	384.4	8.07
98574.5	383.2	8.05
98578.5	384.8	8.08
98582.6	386.0	8.11
98586.5	385.6	8.10
98590.5	385.2	8.09
98594.5	384.3	8.07
98598.6	384.3	8.07
98602.5	384.1	8.07
98606.6	387.4	8.14
98610.6	392.0	8.23
98614.5	393.8	8.27
98618.5	393.3	8.26
98622.5	392.1	8.23
98626.5	390.0	8.19
98630.5	389.9	8.19
98634.5	391.4	8.22
98638.5	394.9	8.29
98642.5	398.3	8.36
98646.5	400.8	8.42
98650.5	402.1	8.44
98654.5	404.6	8.50
98658.5	407.0	8.55
98662.5	409.4	8.60
98666.5	411.3	8.64
98670.6	413.8	8.69
98674.5	415.5	8.73
98678.5	417.3	8.76
98682.5	418.6	8.79
98686.5	419.7	8.81
98690.5	419.1	8.80
98694.5	420.9	8.84
98698.5	423.9	8.90
98702.5	427.0	8.97
98706.5	430.8	9.05
98710.5	434.4	9.12
98714.5	435.8	9.15
98718.5	436.4	9.16
98722.5	434.6	9.13
98726.5	433.2	9.10
98730.5	433.3	9.10
98734.5	433.5	9.10
98738.5	432.4	9.08
98742.5	432.2	9.08
98746.5	430.9	9.05
98750.5	431.3	9.06
98754.5	434.3	9.12
98758.5	437.6	9.19
98762.5	440.2	9.25
98766.5	444.9	9.34
98770.5	450.0	9.45
98774.5	454.1	9.54
98778.5	453.6	9.53
98782.5	451.6	9.48
98786.5	449.8	9.45
98790.5	449.3	9.44
98794.5	448.3	9.42
98798.5	447.3	9.39
98802.5	445.4	9.35
98806.5	444.7	9.34
98810.5	444.6	9.34
98814.5	444.8	9.34
98818.5	444.9	9.34
98822.5	446.0	9.37
98826.5	448.7	9.42
98830.5	453.0	9.51
98834.5	453.1	9.52
98838.5	451.3	9.48
98842.5	449.5	9.44
98846.5	449.3	9.44
98850.5	450.7	9.46
98854.5	453.3	9.52
98858.5	452.6	9.50
98862.5	452.2	9.50
98866.5	456.6	9.59
98870.5	462.4	9.71
98874.5	465.3	9.77
98878.5	464.0	9.74
98882.5	457.8	9.61
98886.5	471.5	9.90
98890.5	499.2	10.48
98894.5	539.8	11.34
98898.5	599.5	12.59
98902.5	629.2	13.21
98906.5	621.6	13.05
98910.5	610.7	12.83
98914.5	606.0	12.73
98918.5	604.5	12.69
98922.5	590.9	12.41
98926.5	577.9	12.14
98930.5	575.6	12.09
98934.5	580.6	12.19
98938.5	582.7	12.24
98942.5	580.8	12.20
98946.5	577.9	12.13
98950.5	576.3	12.10
98954.5	580.5	12.19
98958.5	593.6	12.47
98962.5	603.1	12.67
98966.5	605.7	12.72
98970.5	606.1	12.73
98974.5	609.6	12.80
98978.5	615.2	12.92
98982.5	618.1	12.98
98986.5	614.9	12.91
98990.5	615.3	12.92
98994.5	621.3	13.05
98998.5	630.9	13.25
99002.5	638.4	13.41
99006.5	642.1	13.48
99010.5	641.6	13.47
99014.5	640.5	13.45
99018.5	640.3	13.45
99022.5	642.5	13.49
99026.5	643.7	13.52
99030.5	643.8	13.52
99034.5	638.0	13.40
99038.5	630.5	13.24
99042.5	627.2	13.17
99046.5	626.4	13.16
99050.5	621.0	13.04
99054.5	615.7	12.93
99058.5	611.9	12.85
99062.5	616.0	12.94
99066.5	619.8	13.02
99070.5	618.3	12.98
99074.5	617.6	12.97
99078.5	611.3	12.84
99082.5	597.9	12.56
99086.5	592.8	12.45
99090.5	593.3	12.46
99094.5	593.1	12.46
99098.5	590.3	12.40
99102.5	589.7	12.38
99106.5	589.1	12.37
99110.5	587.8	12.34
99114.5	586.0	12.31
99118.5	585.5	12.30
99122.5	584.5	12.27
99126.5	584.9	12.28
99130.5	584.9	12.28
99134.5	584.6	12.28
99138.5	583.4	12.25
99142.5	583.6	12.26
99146.5	582.9	12.24
99150.5	582.7	12.24
99154.5	582.2	12.23
99158.5	582.9	12.24
99162.5	583.7	12.26
99166.4	585.8	12.30
99170.4	587.3	12.33
99174.5	587.7	12.34
99178.5	585.5	12.30
99182.4	584.8	12.28
99186.5	587.2	12.33
99190.5	592.0	12.43
99194.5	593.6	12.47
99198.5	594.8	12.49
99202.5	596.3	12.52
99206.5	598.6	12.57
99210.5	598.6	12.57
99214.5	598.6	12.57
99218.5	598.4	12.57
99222.5	599.5	12.59
99226.4	600.7	12.61
99230.4	602.1	12.64
99234.4	601.9	12.64
99238.4	602.0	12.64
99242.4	601.0	12.62
99246.4	600.9	12.62
99250.4	600.4	12.61
99254.5	600.6	12.61
99258.4	600.4	12.61
99262.4	601.0	12.62
99266.4	600.8	12.62
99270.4	601.5	12.63
99274.4	601.4	12.63
99278.5	601.7	12.64
99282.5	600.9	12.62
99286.4	600.6	12.61
99290.4	598.9	12.58
99294.4	595.4	12.50
99298.4	589.9	12.39
99302.4	587.5	12.34
99306.4	587.1	12.33
99310.4	586.5	12.32
99314.4	583.6	12.26
99318.4	583.1	12.24
99322.4	584.0	12.26
99326.4	584.4	12.27
99330.4	582.8	12.24
99334.4	580.8	12.20
99338.5	576.1	12.10
99342.4	572.7	12.03
99346.4	569.6	11.96
99350.4	566.9	11.90
99354.4	566.2	11.89
99358.4	567.5	11.92
99362.4	571.6	12.00
99366.4	579.9	12.18
99370.4	580.4	12.19
99374.4	571.7	12.01
99378.4	559.3	11.75
99382.4	553.4	11.62
99386.4	555.7	11.67
99390.4	561.1	11.78
99394.4	559.8	11.76
99398.4	552.1	11.59
99402.4	546.2	11.47
99406.4	545.1	11.45
99410.4	542.4	11.39
99414.4	546.0	11.47
99418.4	563.6	11.84
99422.4	589.6	12.38
99426.4	604.6	12.70
99430.4	608.7	12.78
99434.4	610.8	12.83
99438.4	612.5	12.86
99442.4	608.6	12.78
99446.4	604.5	12.70
99450.4	602.0	12.64
99454.4	601.7	12.64
99458.4	601.9	12.64
99462.4	602.6	12.65
99466.4	602.3	12.65
99470.4	605.3	12.71
99474.4	610.1	12.81
99478.4	616.2	12.94
99482.4	623.0	13.08
99486.4	626.6	13.16
99490.4	623.9	13.10
99494.4	620.6	13.03
99498.4	616.1	12.94
99502.4	614.3	12.90
99506.4	613.7	12.89
99510.4	615.3	12.92
99514.4	616.4	12.95
99518.4	617.5	12.97
99522.4	616.8	12.95
99526.4	615.9	12.93
99530.4	613.1	12.88
99534.4	613.0	12.87
99538.4	614.1	12.90
99542.4	611.7	12.85
99546.4	601.7	12.64
99550.4	591.6	12.42
99554.4	585.3	12.29
99558.4	585.6	12.30
99562.4	586.1	12.31
99566.4	584.0	12.26
99570.4	581.4	12.21
99574.4	583.3	12.25
99578.4	584.1	12.27
99582.4	584.6	12.28
99586.5	592.5	12.44
99590.4	607.1	12.75
99594.4	616.8	12.95
99598.4	621.8	13.06
99602.4	619.9	13.02
99606.4	614.7	12.91
99610.4	614.3	12.90
99614.4	623.9	13.10
99618.4	633.1	13.30
99622.4	637.5	13.39
99626.4	637.5	13.39
99630.4	636.0	13.36
99634.4	630.6	13.24
99638.4	626.7	13.16
99642.4	623.1	13.08
99646.4	619.3	13.01
99650.4	607.9	12.76
99654.4	589.4	12.38
99658.4	576.0	12.10
99662.4	572.9	12.03
99666.4	573.1	12.04
99670.4	580.3	12.19
99674.4	596.5	12.53
99678.4	618.1	12.98
99682.4	630.9	13.25
99686.4	634.0	13.31
99690.4	632.8	13.29
99694.4	631.0	13.25
99698.4	626.4	13.16
99702.4	619.8	13.02
99706.4	610.8	12.83
99710.4	607.2	12.75
99714.4	606.8	12.74
99718.4	606.2	12.73
99722.4	603.8	12.68
99726.4	600.4	12.61
99730.4	595.9	12.51
99734.4	596.9	12.54
99738.4	602.4	12.65
99742.4	606.0	12.73
99746.4	604.8	12.70
99750.4	609.0	12.79
99754.4	616.5	12.95
99758.4	621.8	13.06
99762.4	624.4	13.11
99766.4	622.8	13.08
99770.4	616.7	12.95
99774.4	615.5	12.93
99778.4	616.0	12.94
99782.4	615.2	12.92
99786.4	612.6	12.86
99790.4	612.1	12.85
99794.4	612.2	12.86
99798.4	611.5	12.84
99802.4	604.5	12.70
99806.4	601.1	12.62
99810.4	606.0	12.73
99814.4	614.4	12.90
99818.4	614.8	12.91
99822.4	605.4	12.71
99826.4	589.4	12.38
99830.4	579.0	12.16
99834.4	575.1	12.08
99838.3	574.4	12.06
99842.4	574.8	12.07
99846.3	578.6	12.15
99850.3	581.7	12.22
99854.3	584.4	12.27
99858.4	584.6	12.28
99862.4	589.4	12.38
99866.4	596.4	12.53
99870.4	596.9	12.54
99874.3	589.1	12.37
99878.3	583.8	12.26
99882.4	581.5	12.21
99886.3	581.6	12.21
99890.3	583.0	12.24
99894.3	589.4	12.38
99898.3	594.5	12.48
99902.4	595.6	12.51
99906.3	594.6	12.49
99910.3	595.2	12.50
99914.3	591.1	12.41
99918.4	585.0	12.29
99922.3	582.1	12.22
99926.4	585.6	12.30
99930.3	591.7	12.43
99934.3	595.9	12.51
99938.4	592.0	12.43
99942.3	589.1	12.37
99946.4	587.5	12.34
99950.4	585.4	12.29
99954.4	584.6	12.28
99958.3	588.3	12.35
99962.4	590.1	12.39
99966.3	589.5	12.38
99970.3	588.1	12.35
99974.3	588.8	12.37
99978.4	587.2	12.33
99982.4	583.1	12.25
99986.3	578.9	12.16
99990.4	579.9	12.18
99994.3	583.0	12.24
99998.3	586.1	12.31
100002.3	586.5	12.32
100006.3	587.7	12.34
100010.3	587.3	12.33
100014.4	586.9	12.32
100018.3	585.8	12.30
100022.3	585.3	12.29
100026.4	583.6	12.26
100030.3	583.5	12.25
100034.3	583.2	12.25
100038.3	582.6	12.23
100042.3	582.0	12.22
100046.3	585.0	12.29
100050.3	587.6	12.34
100054.3	589.2	12.37
100058.3	588.9	12.37
100062.3	589.1	12.37
100066.3	588.8	12.37
100070.3	589.4	12.38
100074.3	589.1	12.37
100078.3	590.4	12.40
100082.3	590.4	12.40
100086.4	591.1	12.41
100090.3	592.5	12.44
100094.3	595.1	12.50
100098.3	595.2	12.50
100102.3	594.4	12.48
100106.3	592.8	12.45
100110.3	592.6	12.44
100114.3	591.9	12.43
100118.3	592.1	12.43
100122.3	591.0	12.41
100126.3	590.8	12.41
100130.3	590.1	12.39
100134.3	590.4	12.40
100138.3	590.1	12.39
100142.3	591.3	12.42
100146.3	592.3	12.44
100150.3	594.5	12.49
100154.3	595.4	12.50
100158.3	595.5	12.51
100162.3	593.1	12.46
100166.3	591.2	12.41
100170.3	591.7	12.43
100174.3	595.8	12.51
100178.3	597.1	12.54
100182.3	599.0	12.58
100186.3	600.1	12.60
100190.4	600.5	12.61
100194.3	600.5	12.61
100198.3	602.4	12.65
100202.4	603.2	12.67
100206.3	602.2	12.65
100210.3	599.1	12.58
100214.3	598.4	12.57
100218.3	597.4	12.55
100222.3	597.6	12.55
100226.3	598.8	12.58
100230.3	601.4	12.63
100234.3	602.3	12.65
100238.3	602.9	12.66
100242.3	602.4	12.65
100246.3	602.2	12.65
100250.3	601.1	12.62
100254.3	600.8	12.62
100258.3	599.4	12.59
100262.3	598.8	12.58
100266.3	597.9	12.56
100270.3	597.4	12.54
100274.3	595.5	12.51
100278.3	595.2	12.50
100282.3	594.5	12.48
100286.3	593.6	12.47
100290.3	592.4	12.44
100294.3	592.9	12.45
100298.3	592.5	12.44
100302.3	592.6	12.44
100306.3	591.6	12.42
100310.3	592.8	12.45
100314.3	594.0	12.47
100318.3	594.2	12.48
100322.3	592.7	12.45
100326.3	592.9	12.45
100330.3	592.3	12.44
100334.3	592.7	12.45
100338.3	592.3	12.44
100342.3	592.7	12.45
100346.3	593.1	12.45
100350.3	594.8	12.49
100354.3	594.9	12.49
100358.3	597.2	12.54
100362.3	598.0	12.56
100366.3	595.8	12.51
100370.3	592.2	12.44
100374.3	591.6	12.42
100378.3	590.8	12.41
100382.3	590.5	12.40
100386.3	589.6	12.38
100390.3	589.0	12.37
100394.3	586.9	12.33
100398.3	586.5	12.32
100402.3	586.1	12.31
100406.3	586.6	12.32
100410.3	585.5	12.30
100414.3	584.6	12.28
100418.3	583.9	12.26
100422.3	584.7	12.28
100426.2	584.2	12.27
100430.3	582.5	12.23
100434.2	578.9	12.16
100438.2	578.6	12.15
100442.3	579.0	12.16
100446.3	579.7	12.17
100450.3	579.6	12.17
100454.3	580.2	12.18
100458.2	580.0	12.18
100462.3	579.4	12.17
100466.3	576.1	12.10
100470.2	573.2	12.04
100474.3	571.6	12.00
100478.3	572.5	12.02
100482.3	573.6	12.05
100486.2	576.6	12.11
100490.2	579.6	12.17
100494.3	582.0	12.22
100498.3	580.6	12.19
100502.3	577.8	12.13
100506.3	574.9	12.07
100510.3	575.8	12.09
100514.3	576.8	12.11
100518.2	577.7	12.13
100522.3	577.5	12.13
100526.2	579.6	12.17
100530.2	582.0	12.22
100534.3	583.1	12.24
100538.3	581.0	12.20
100542.3	579.9	12.18
100546.3	583.5	12.25
100550.3	593.5	12.46
100554.3	601.1	12.62
100558.3	604.5	12.69
100562.3	603.5	12.67
100566.3	601.4	12.63
100570.2	597.3	12.54
100574.2	597.1	12.54
100578.2	598.9	12.58
100582.2	599.7	12.59
100586.2	599.6	12.59
100590.2	606.9	12.75
100594.2	618.1	12.98
100598.2	619.8	13.02
100602.2	608.2	12.77
100606.2	600.1	12.60
100610.2	598.0	12.56
100614.2	598.7	12.57
100618.2	599.5	12.59
100622.2	600.2	12.60
100626.3	598.8	12.57
100630.2	602.8	12.66
100634.2	609.2	12.79
100638.2	612.6	12.86
100642.2	615.0	12.91
100646.2	622.8	13.08
100650.2	626.9	13.17
100654.2	626.6	13.16
100658.3	626.7	13.16
100662.2	628.6	13.20
100666.2	629.8	13.23
100670.2	633.9	13.31
100674.2	636.6	13.37
100678.2	638.1	13.40
100682.2	638.2	13.40
100686.3	640.0	13.44
100690.2	639.6	13.43
100694.2	636.7	13.37
100698.3	633.6	13.30
100702.2	633.3	13.30
100706.2	631.7	13.26
100710.2	630.2	13.23
100714.2	628.1	13.19
100718.2	627.8	13.18
100722.2	627.4	13.17
100726.2	627.6	13.18
100730.3	626.9	13.17
100734.2	627.6	13.18
100738.2	626.8	13.16
100742.3	626.2	13.15
100746.2	624.0	13.10
100750.2	622.8	13.08
100754.2	622.3	13.07
100758.2	620.8	13.04
100762.3	616.2	12.94
100766.2	613.8	12.89
100770.2	610.7	12.82
100774.3	607.0	12.75
100778.2	602.3	12.65
100782.2	599.4	12.59
100786.2	596.8	12.53
100790.2	593.5	12.46
100794.2	588.4	12.36
100798.2	588.4	12.36
100802.2	593.1	12.46
100806.2	599.2	12.58
100810.2	604.0	12.68
100814.2	608.9	12.79
100818.2	609.3	12.80
100822.2	612.4	12.86
100826.2	619.3	13.00
100830.2	621.9	13.06
100834.2	618.3	12.98
100838.2	615.4	12.92
100842.2	613.8	12.89
100846.2	614.9	12.91
100850.2	616.3	12.94
100854.2	617.1	12.96
100858.2	613.0	12.87
100862.2	605.1	12.71
100866.2	595.8	12.51
100870.2	591.7	12.43
100874.2	591.6	12.42
100878.2	599.8	12.60
100882.2	610.2	12.81
100886.2	610.3	12.82
100890.2	601.0	12.62
100894.2	598.8	12.57
100898.2	600.2	12.61
100902.2	598.7	12.57
100906.2	595.3	12.50
100910.2	594.9	12.49
100914.2	595.5	12.51
100918.2	596.4	12.52
100922.2	593.9	12.47
100926.2	591.5	12.42
100930.2	587.2	12.33
100934.2	580.9	12.20
100938.2	573.5	12.04
100942.2	566.4	11.89
100946.2	558.8	11.73
100950.2	554.9	11.65
100954.2	547.7	11.50
100958.2	538.5	11.31
100962.2	533.7	11.21
100966.2	534.1	11.22
100970.2	537.2	11.28
100974.2	540.1	11.34
100978.2	539.3	11.32
100982.2	538.8	11.32
100986.2	527.8	11.08
100990.2	508.3	10.67
100994.2	495.3	10.40
100998.2	493.4	10.36
101002.2	503.3	10.57
101006.2	534.2	11.22
101010.2	562.1	11.80
101014.2	566.4	11.89
101018.2	560.2	11.77
101022.2	530.2	11.13
101026.2	453.2	9.52
101030.2	384.3	8.07
101034.2	362.2	7.61
101038.2	359.9	7.56
101042.2	354.4	7.44
101046.2	342.2	7.19
101050.1	328.5	6.90
101054.2	314.3	6.60
101058.2	290.9	6.11
101062.2	271.8	5.71
101066.2	264.8	5.56
101070.2	263.8	5.54
101074.2	262.3	5.51
101078.2	257.3	5.40
101082.2	254.0	5.33
101086.2	256.2	5.38
101090.2	259.8	5.46
101094.2	264.2	5.55
101098.1	266.3	5.59
101102.2	267.1	5.61
101106.2	271.1	5.69
101110.2	279.4	5.87
101114.2	286.7	6.02
101118.2	295.3	6.20
101122.2	308.6	6.48
101126.2	325.6	6.84
101130.2	337.6	7.09
101134.2	337.5	7.09
101138.1	328.0	6.89
101142.1	319.9	6.72
101146.2	313.7	6.59
101150.2	309.2	6.49
101154.2	306.3	6.43
101158.2	306.9	6.44
101162.2	310.6	6.52
101166.2	309.1	6.49
101170.2	297.5	6.25
101174.1	286.8	6.02
101178.2	282.1	5.92
101182.1	283.1	5.94
101186.1	284.6	5.98
101190.1	283.9	5.96
101194.2	283.6	5.96
101198.2	285.9	6.00
101202.1	286.7	6.02
101206.2	286.1	6.01
101210.2	285.4	5.99
101214.1	286.0	6.01
101218.1	286.6	6.02
101222.1	287.4	6.04
101226.1	286.7	6.02
101230.2	286.7	6.02
101234.1	287.2	6.03
101238.1	288.4	6.06
101242.2	289.9	6.09
101246.1	291.4	6.12
101250.1	292.8	6.15
101254.1	296.4	6.22
101258.2	300.6	6.31
101262.2	303.5	6.37
101266.2	303.5	6.37
101270.1	303.9	6.38
101274.1	304.3	6.39
101278.1	305.5	6.41
101282.1	306.1	6.43
101286.2	304.4	6.39
101290.2	298.6	6.27
101294.1	287.1	6.03
101298.1	270.7	5.68
101302.1	254.3	5.34
101306.1	240.8	5.06
101310.1	238.5	5.01
101314.2	242.3	5.09
101318.2	237.1	4.98
101322.2	223.6	4.69
101326.1	217.9	4.58
101330.1	220.5	4.63
101334.1	222.9	4.68
101338.1	220.5	4.63
101342.1	213.5	4.48
101346.1	207.4	4.36
101350.2	206.1	4.33
101354.1	206.4	4.33
101358.2	207.4	4.36
101362.2	209.2	4.39
101366.2	209.5	4.40
101370.1	207.4	4.36
101374.1	204.8	4.30
101378.1	198.6	4.17
101382.1	189.7	3.98
101386.1	186.0	3.91
101390.2	188.3	3.95
101394.2	188.9	3.97
101398.2	189.0	3.97
101402.2	189.6	3.98
101406.1	188.9	3.97
101410.1	186.4	3.91
101414.2	183.6	3.86
101418.1	181.2	3.80
101422.2	180.7	3.79
101426.2	181.8	3.82
101430.1	183.0	3.84
101434.1	183.2	3.85
101438.1	185.0	3.89
101442.1	189.2	3.97
101446.1	194.7	4.09
101450.2	198.0	4.16
101454.1	199.5	4.19
101458.1	200.6	4.21
101462.1	198.5	4.17
101466.2	191.3	4.02
101470.1	186.0	3.91
101474.1	184.5	3.88
101478.1	184.5	3.87
101482.2	184.1	3.87
101486.1	184.3	3.87
101490.2	184.9	3.88
101494.1	185.1	3.89
101498.1	184.7	3.88
101502.1	185.0	3.89
101506.1	185.2	3.89
101510.1	185.0	3.89
101514.1	184.8	3.88
101518.2	185.2	3.89
101522.1	185.1	3.89
101526.1	184.9	3.88
101530.1	184.5	3.87
101534.1	184.0	3.86
101538.1	183.4	3.85
101542.1	183.3	3.85
101546.1	183.1	3.84
101550.1	183.5	3.85
101554.1	183.8	3.86
101558.1	184.2	3.87
101562.1	184.3	3.87
101566.1	184.5	3.87
101570.1	184.5	3.87
101574.1	184.8	3.88
101578.1	184.8	3.88
101582.1	185.1	3.89
101586.1	185.3	3.89
101590.1	186.9	3.92
101594.1	189.6	3.98
101598.1	192.0	4.03
101602.1	191.8	4.03
101606.1	190.4	4.00
101610.1	188.9	3.97
101614.1	188.3	3.95
101618.1	187.6	3.94
101622.1	187.7	3.94
101626.1	188.0	3.95
101630.1	188.2	3.95
101634.1	188.5	3.96
101638.1	189.4	3.98
101642.1	190.3	4.00
101646.0	191.1	4.01
101650.1	191.1	4.01
101654.1	191.1	4.01
101658.1	190.8	4.01
101662.1	191.1	4.01
101666.1	191.5	4.02
101670.1	191.9	4.03
101674.1	192.2	4.04
101678.1	192.4	4.04
101682.1	192.3	4.04
101686.1	192.9	4.05
101690.1	193.6	4.07
101694.1	194.9	4.09
101698.1	196.0	4.12
101702.1	197.1	4.14
101706.1	196.9	4.14
101710.1	196.0	4.12
101714.1	196.2	4.12
101718.1	200.1	4.20
101722.1	204.8	4.30
101726.1	205.9	4.32
101730.1	204.4	4.29
101734.1	203.8	4.28
101738.1	203.6	4.28
101742.1	205.2	4.31
101746.1	209.2	4.39
101750.1	213.4	4.48
101754.1	210.2	4.42
101758.0	201.9	4.24
101762.0	197.4	4.15
101766.1	195.9	4.11
101770.1	192.5	4.04
101774.1	194.3	4.08
101778.0	200.4	4.21
101782.1	205.2	4.31
101786.1	206.4	4.33
101790.1	204.6	4.30
101794.1	199.4	4.19
101798.1	193.5	4.06
101802.1	191.3	4.02
101806.1	189.8	3.99
101810.1	186.0	3.91
101814.1	185.7	3.90
101818.1	187.6	3.94
101822.1	188.2	3.95
101826.0	190.5	4.00
101830.1	197.0	4.14
101834.1	201.4	4.23
101838.1	202.5	4.25
101842.1	202.2	4.25
101846.1	200.7	4.21
101850.0	195.2	4.10
101854.1	187.8	3.94
101858.1	182.5	3.83
101862.1	181.5	3.81
101866.0	182.0	3.82
101870.1	184.0	3.86
101874.1	186.7	3.92
101878.1	186.0	3.91
101882.1	182.7	3.84
101886.1	181.3	3.81
101890.1	181.0	3.80
101894.0	184.4	3.87
101898.1	193.9	4.07
101902.1	205.6	4.32
101906.1	211.7	4.45
101910.0	213.7	4.49
101914.1	216.0	4.53
101918.0	216.3	4.54
101922.0	211.1	4.43
101926.0	204.8	4.30
101930.1	200.4	4.21
101934.1	199.4	4.19
101938.1	200.5	4.21
101942.0	201.4	4.23
101946.1	204.7	4.30
101950.1	216.9	4.56
101954.1	221.5	4.65
101958.1	210.2	4.41
101962.1	203.0	4.26
101966.0	205.6	4.32
101970.0	210.2	4.41
101974.0	223.2	4.69
101978.0	243.2	5.11
101982.0	261.9	5.50
101986.0	276.0	5.80
101990.0	281.9	5.92
101994.0	285.3	5.99
101998.0	293.5	6.16
102002.0	300.1	6.30
102006.0	290.6	6.10
102010.0	261.0	5.48
102014.0	237.8	4.99
102018.0	227.5	4.78
102022.0	220.3	4.63
102026.0	222.1	4.66
102030.1	238.1	5.00
102034.0	257.8	5.41
102038.1	266.5	5.60
102042.0	265.4	5.57
102046.0	268.9	5.65
102050.0	278.3	5.84
102054.0	291.3	6.12
102058.0	289.6	6.08
102062.0	269.5	5.66
102066.0	253.2	5.32
102070.0	243.9	5.12
102074.0	238.5	5.01
102078.0	243.1	5.10
102082.0	252.1	5.29
102086.0	257.6	5.41
102090.0	256.4	5.38
102094.0	257.0	5.40
102098.0	260.5	5.47
102102.0	260.9	5.48
102106.0	262.9	5.52
102110.0	265.2	5.57
102114.0	267.0	5.61
102118.0	271.1	5.69
102122.0	267.4	5.61
102126.0	268.0	5.63
102130.0	277.3	5.82
102134.0	282.1	5.92
102138.0	282.1	5.92
102142.0	282.5	5.93
102146.0	280.7	5.89
102150.0	280.6	5.89
102154.0	282.1	5.92
102158.0	282.4	5.93
102162.0	282.9	5.94
102166.0	282.5	5.93
102170.0	285.0	5.99
102174.0	293.3	6.16
102178.0	300.8	6.32
102182.0	307.6	6.46
102186.0	310.8	6.53
102190.0	311.3	6.54
102194.0	314.2	6.60
102198.0	317.5	6.67
102202.0	317.5	6.67
102206.0	316.6	6.65
102210.0	315.8	6.63
102214.0	317.2	6.66
102218.0	319.8	6.72
102222.0	322.4	6.77
102226.0	322.9	6.78
102230.0	323.2	6.79
102234.0	323.8	6.80
102238.0	324.5	6.81
102242.0	323.9	6.80
102246.0	323.0	6.78
102250.0	321.5	6.75
102254.0	321.7	6.76
102258.0	323.1	6.79
102262.0	324.1	6.81
102266.0	324.2	6.81
102270.0	324.2	6.81
102274.0	323.3	6.79
102278.0	323.2	6.79
102282.0	323.2	6.79
102286.0	323.5	6.79
102290.0	323.5	6.79
102293.9	323.6	6.80
102298.0	325.3	6.83
102301.9	332.9	6.99
102305.9	341.8	7.18
102310.0	344.4	7.23
102313.9	342.9	7.20
102317.9	343.1	7.20
102322.0	342.9	7.20
102326.0	343.3	7.21
102330.0	343.3	7.21
102333.9	342.7	7.20
102338.0	341.7	7.18
102342.0	341.3	7.17
102346.0	339.9	7.14
102350.0	338.4	7.11
102354.0	336.6	7.07
102358.0	335.1	7.04
102362.0	332.9	6.99
102365.9	331.4	6.96
102369.9	329.6	6.92
102373.9	328.7	6.90
102377.9	329.8	6.93
102381.9	331.9	6.97
102385.9	332.4	6.98
102389.9	332.8	6.99
102394.0	332.7	6.99
102397.9	333.0	6.99
102401.9	332.7	6.99
102406.0	332.8	6.99
102409.9	332.6	6.98
102413.9	332.6	6.98
102418.0	332.2	6.98
102421.9	332.0	6.97
102425.9	331.2	6.96
102429.9	331.5	6.96
102433.9	331.8	6.97
102437.9	331.8	6.97
102441.9	331.4	6.96
102445.9	331.6	6.96
102449.9	331.4	6.96
102453.9	331.8	6.97
102457.9	331.8	6.97
102461.9	331.9	6.97
102465.9	331.8	6.97
102469.9	331.8	6.97
102474.0	331.0	6.95
102477.9	330.6	6.94
102481.9	330.2	6.94
102485.9	330.2	6.93
102489.9	329.8	6.92
102493.9	330.0	6.93
102497.9	330.1	6.93
102501.9	330.5	6.94
102505.9	331.1	6.95
102509.9	331.8	6.97
102513.9	329.0	6.91
102517.9	325.5	6.84
102521.9	324.7	6.82
102526.0	327.6	6.88
102529.9	330.9	6.95
102533.9	332.9	6.99
102537.9	333.2	7.00
102541.9	333.3	7.00
102545.9	332.5	6.98
102549.9	325.9	6.84
102553.9	308.7	6.48
102557.9	296.0	6.22
102561.9	295.9	6.21
102565.9	298.8	6.27
102569.9	298.5	6.27
102573.9	293.8	6.17
102577.9	285.3	5.99
102581.9	280.9	5.90
102585.9	280.3	5.89
102589.9	280.8	5.90
102593.9	281.9	5.92
102597.9	284.3	5.97
102601.9	285.4	5.99
102605.9	285.1	5.99
102609.9	284.8	5.98
102613.9	287.5	6.04
102617.9	293.5	6.16
102621.9	306.8	6.44
102625.9	320.5	6.73
102629.9	323.9	6.80
102633.9	325.8	6.84
102637.9	334.8	7.03
102641.9	342.2	7.19
102645.9	344.5	7.23
102649.9	342.3	7.19
102653.9	326.9	6.87
102657.9	300.9	6.32
102661.9	290.2	6.09
102665.9	290.0	6.09
102669.9	287.5	6.04
102673.9	286.6	6.02
102677.9	286.4	6.01
102681.9	284.2	5.97
102685.9	284.4	5.97
102689.9	285.9	6.00
102693.9	285.9	6.00
102697.9	282.8	5.94
102701.9	280.4	5.89
102705.9	280.5	5.89
102709.9	290.9	6.11
102713.9	305.4	6.41
102717.9	309.8	6.51
102721.9	305.1	6.41
102725.9	299.5	6.29
102729.9	295.5	6.20
102733.9	290.7	6.10
102737.9	288.1	6.05
102741.9	300.8	6.32
102745.9	322.1	6.76
102749.9	333.9	7.01
102753.9	334.6	7.03
102757.9	333.0	6.99
102761.9	328.4	6.90
102765.9	323.5	6.79
102769.9	317.9	6.68
102773.9	311.9	6.55
102777.9	310.0	6.51
102781.9	313.1	6.58
102785.9	315.7	6.63
102789.9	317.1	6.66
102793.9	318.2	6.68
102797.9	320.0	6.72
102801.9	322.3	6.77
102805.9	324.5	6.81
102809.9	321.0	6.74
102813.9	315.9	6.63
102817.9	313.8	6.59
102821.9	314.5	6.60
102825.9	313.5	6.58
102829.9	312.9	6.57
102833.9	313.5	6.58
102837.9	313.0	6.57
102841.9	311.5	6.54
102845.9	312.7	6.57
102849.9	313.4	6.58
102853.9	313.4	6.58
102857.9	313.8	6.59
102861.9	314.5	6.60
102865.9	314.1	6.60
102869.9	316.0	6.64
102873.9	318.5	6.69
102877.9	319.3	6.71
102881.9	318.3	6.68
102885.9	320.3	6.73
102889.9	323.8	6.80
102893.9	323.9	6.80
102897.8	320.5	6.73
102901.8	318.8	6.70
102905.8	318.2	6.68
102909.8	318.6	6.69
102913.9	319.0	6.70
102917.8	319.1	6.70
102921.8	318.6	6.69
102925.8	317.9	6.67
102929.8	316.3	6.64
102933.8	316.2	6.64
102937.8	315.7	6.63
102941.8	315.0	6.62
102945.8	314.3	6.60
102949.8	313.2	6.58
102953.8	312.1	6.55
102957.8	312.6	6.56
102961.8	311.4	6.54
102965.8	308.7	6.48
102969.8	308.0	6.47
102973.8	310.1	6.51
102977.8	310.6	6.52
102981.8	309.2	6.49
102985.8	306.7	6.44
102989.8	304.1	6.39
102993.8	300.9	6.32
102997.8	299.6	6.29
103001.8	301.0	6.32
103005.8	303.2	6.37
103009.8	303.7	6.38
103013.8	303.8	6.38
103017.8	304.3	6.39
103021.8	303.8	6.38
103025.8	300.4	6.31
103029.8	298.6	6.27
103033.8	297.5	6.25
103037.8	295.9	6.21
103041.8	294.9	6.19
103045.8	295.1	6.20
103049.8	297.7	6.25
103053.8	306.3	6.43
103057.8	311.9	6.55
103061.8	310.9	6.53
103065.8	307.5	6.46
103069.8	303.6	6.38
103073.8	302.4	6.35
103077.8	306.3	6.43
103081.8	308.6	6.48
103085.8	310.9	6.53
103089.8	316.2	6.64
103093.8	320.1	6.72
103097.8	318.8	6.69
103101.8	315.5	6.63
103105.8	312.7	6.57
103109.8	313.2	6.58
103113.8	315.2	6.62
103117.8	315.7	6.63
103121.8	313.4	6.58
103125.8	309.7	6.50
103129.8	307.7	6.46
103133.8	311.3	6.54
103137.8	310.0	6.51
103141.8	303.5	6.37
103145.8	303.6	6.37
103149.8	310.9	6.53
103153.8	316.4	6.65
103157.8	317.1	6.66
103161.9	313.0	6.57
103165.9	306.0	6.43
103169.9	301.9	6.34
103173.9	306.2	6.43
103177.9	312.9	6.57
103181.9	317.8	6.67
103185.8	321.4	6.75
103189.8	323.4	6.79
103193.8	317.8	6.67
103197.8	307.9	6.47
103201.8	300.2	6.30
103205.8	299.5	6.29
103209.8	305.2	6.41
103213.8	313.0	6.57
103217.9	314.7	6.61
103221.8	315.9	6.63
103225.8	319.4	6.71
103229.8	322.5	6.77
103233.9	322.9	6.78
103237.9	323.4	6.79
103241.8	325.1	6.83
103245.8	329.4	6.92
103249.8	333.3	7.00
103253.8	335.7	7.05
103257.9	336.3	7.06
103261.8	336.1	7.06
103265.8	334.3	7.02
103269.8	333.5	7.00
103273.8	333.0	6.99
103277.8	334.3	7.02
103281.8	334.7	7.03
103285.8	333.7	7.01
103289.8	332.7	6.99
103293.8	332.1	6.97
103297.8	330.9	6.95
103301.8	329.2	6.91
103305.8	324.3	6.81
103309.8	319.9	6.72
103313.8	319.2	6.70
103317.8	324.0	6.80
103321.8	327.4	6.87
103325.8	326.9	6.86
103329.8	325.7	6.84
103333.8	320.7	6.73
103337.8	310.3	6.52
103341.8	305.0	6.41
103345.8	303.1	6.36
103349.8	301.3	6.33
103353.8	301.7	6.34
103357.8	300.2	6.30
103361.8	293.2	6.16
103365.8	289.3	6.07
103369.8	288.4	6.06
103373.8	291.0	6.11
103377.8	297.8	6.25
103381.8	304.7	6.40
103385.8	305.6	6.42
103389.8	300.8	6.32
103393.8	297.8	6.25
103397.8	301.7	6.34
103401.8	303.2	6.37
103405.8	306.2	6.43
103409.8	313.8	6.59
103413.8	317.7	6.67
103417.8	312.8	6.57
103421.8	306.2	6.43
103425.8	306.3	6.43
103429.8	310.2	6.51
103433.8	310.2	6.51
103437.8	308.9	6.49
103441.8	303.3	6.37
103445.8	293.6	6.17
103449.8	286.7	6.02
103453.8	277.5	5.83
103457.8	263.0	5.52
103461.8	257.0	5.40
103465.8	256.9	5.39
103469.8	257.3	5.40
103473.8	258.8	5.43
103477.8	261.7	5.50
103481.8	265.4	5.57
103485.8	269.8	5.67
103489.8	271.4	5.70
103493.8	271.0	5.69
103497.8	269.6	5.66
103501.8	267.6	5.62
103505.8	267.0	5.61
103509.8	270.5	5.68
103513.8	272.0	5.71
103517.8	271.3	5.70
103521.8	272.8	5.73
103525.8	281.0	5.90
103529.8	292.8	6.15
103533.8	298.8	6.27
103537.8	297.1	6.24
103541.8	293.5	6.16
103545.8	289.1	6.07
103549.8	285.4	5.99
103553.8	280.2	5.88
103557.7	279.0	5.86
103561.8	284.5	5.97
103565.7	292.2	6.14
103569.8	295.7	6.21
103573.7	301.5	6.33
103577.8	310.9	6.53
103581.8	315.1	6.62
103585.8	315.2	6.62
103589.7	317.8	6.67
103593.8	320.4	6.73
103597.8	321.7	6.76
103601.8	321.7	6.75
103605.7	326.0	6.85
103609.8	334.3	7.02
103613.8	342.4	7.19
103617.7	348.7	7.32
103621.8	351.1	7.37
103625.8	348.9	7.33
103629.8	354.1	7.44
103633.8	358.4	7.53
103637.8	355.1	7.46
103641.8	349.3	7.34
103645.8	340.8	7.16
103649.8	337.9	7.10
103653.8	349.7	7.34
103657.8	363.0	7.62
103661.8	367.0	7.71
103665.8	364.3	7.65
103669.8	363.1	7.62
103673.8	362.2	7.61
103677.8	361.7	7.60
103681.8	360.2	7.56
103685.8	355.1	7.46
103689.8	343.7	7.22
103693.7	332.6	6.98
103697.8	324.4	6.81
103701.7	318.1	6.68
103705.8	308.3	6.47
103709.8	300.9	6.32
103713.7	300.6	6.31
103717.8	303.0	6.36
103721.7	305.3	6.41
103725.8	311.4	6.54
103729.8	318.7	6.69
103733.7	326.3	6.85
103737.8	333.7	7.01
103741.8	340.6	7.15
103745.8	341.4	7.17
103749.7	336.1	7.06
103753.7	330.4	6.94
103757.8	330.7	6.94
103761.8	333.6	7.01
103765.8	336.7	7.07
103769.8	342.0	7.18
103773.7	349.8	7.35
103777.7	350.4	7.36
103781.8	345.0	7.25
103785.8	342.3	7.19
103789.8	341.1	7.16
103793.7	338.0	7.10
103797.7	337.0	7.08
103801.7	336.3	7.06
103805.7	336.8	7.07
103809.8	343.1	7.21
103813.7	353.8	7.43
103817.7	354.2	7.44
103821.7	348.3	7.31
103825.7	343.9	7.22
103829.8	338.1	7.10
103833.7	330.4	6.94
103837.7	326.9	6.86
103841.8	327.1	6.87
103845.8	329.4	6.92
103849.7	329.9	6.93
103853.7	330.5	6.94
103857.7	332.0	6.97
103861.7	335.7	7.05
103865.7	338.3	7.10
103869.7	334.8	7.03
103873.8	325.3	6.83
103877.8	321.6	6.75
103881.7	321.4	6.75
103885.7	321.3	6.75
103889.7	329.4	6.92
103893.7	341.5	7.17
103897.7	345.8	7.26
103901.7	350.0	7.35
103905.7	357.1	7.50
103909.7	361.0	7.58
103913.7	360.1	7.56
103917.7	360.1	7.56
103921.7	360.2	7.56
103925.8	358.7	7.53
103929.7	355.5	7.46
103933.8	354.1	7.44
103937.7	352.7	7.41
103941.7	348.6	7.32
103945.7	340.3	7.15
103949.7	332.6	6.98
103953.7	327.3	6.87
103957.7	321.1	6.74
103961.7	312.3	6.56
103965.7	308.8	6.48
103969.7	313.0	6.57
103973.7	323.6	6.80
103977.7	334.5	7.02
103981.7	342.2	7.19
103985.7	343.7	7.22
103989.7	341.4	7.17
103993.7	340.5	7.15
103997.7	342.9	7.20
104001.7	343.6	7.22
104005.7	342.8	7.20
104009.7	343.1	7.21
104013.7	345.4	7.25
104017.7	348.2	7.31
104021.7	354.0	7.43
104025.7	357.7	7.51
104029.7	358.1	7.52
104033.7	358.2	7.52
104037.7	355.3	7.46
104041.7	348.1	7.31
104045.7	344.8	7.24
104049.7	347.1	7.29
104053.7	353.5	7.42
104057.7	357.2	7.50
104061.7	360.1	7.56
104065.7	359.4	7.55
104069.7	350.3	7.36
104073.7	341.5	7.17
104077.7	339.9	7.14
104081.7	336.1	7.06
104085.7	333.6	7.00
104089.7	334.5	7.02
104093.7	336.2	7.06
104097.7	336.7	7.07
104101.7	339.2	7.12
104105.7	345.8	7.26
104109.7	349.3	7.34
104113.7	340.5	7.15
104117.7	324.1	6.81
104121.7	306.6	6.44
104125.7	294.9	6.19
104129.6	288.1	6.05
104133.7	285.6	6.00
104137.7	284.9	5.98
104141.7	283.3	5.95
104145.6	279.0	5.86
104149.6	275.0	5.77
104153.7	272.2	5.72
104157.6	271.1	5.69
104161.7	270.2	5.67
104165.7	269.9	5.67
104169.7	269.6	5.66
104173.7	269.9	5.67
104177.7	268.9	5.65
104181.6	267.7	5.62
104185.7	266.7	5.60
104189.7	266.5	5.60
104193.7	266.2	5.59
104197.6	266.3	5.59
104201.7	266.1	5.59
104205.7	266.4	5.59
104209.7	266.2	5.59
104213.6	266.2	5.59
104217.7	266.3	5.59
104221.6	267.6	5.62
104225.7	268.1	5.63
104229.6	268.7	5.64
104233.7	269.9	5.67
104237.7	273.3	5.74
104241.7	276.1	5.80
104245.6	276.8	5.81
104249.7	275.2	5.78
104253.6	272.7	5.73
104257.7	270.2	5.67
104261.7	270.1	5.67
104265.7	271.3	5.70
104269.6	274.1	5.76
104273.7	276.6	5.81
104277.7	280.7	5.89
104281.7	288.8	6.06
104285.7	297.2	6.24
104289.7	293.7	6.17
104293.7	282.1	5.92
104297.7	274.6	5.77
104301.6	273.8	5.75
104305.6	273.5	5.74
104309.6	273.2	5.74
104313.7	272.6	5.72
104317.7	274.3	5.76
104321.6	277.9	5.84
104325.6	282.3	5.93
104329.6	290.2	6.09
104333.6	317.0	6.66
104337.6	355.0	7.46
104341.7	373.5	7.84
104345.7	356.6	7.49
104349.7	317.7	6.67
104353.6	286.7	6.02
104357.6	278.3	5.85
104361.7	282.1	5.92
104365.6	289.0	6.07
104369.7	289.3	6.08
104373.6	283.0	5.94
104377.7	276.7	5.81
104381.7	277.8	5.83
104385.6	283.7	5.96
104389.7	289.3	6.08
104393.7	289.0	6.07
104397.6	284.8	5.98
104401.7	283.4	5.95
104405.6	290.9	6.11
104409.6	300.8	6.32
104413.6	302.8	6.36
104417.6	294.9	6.19
104421.6	285.9	6.00
104425.7	282.6	5.94
104429.6	285.0	5.98
104433.7	284.7	5.98
104437.7	280.1	5.88
104441.7	274.4	5.76
104445.7	271.8	5.71
104449.7	271.1	5.69
104453.7	272.0	5.71
104457.6	273.2	5.74
104461.6	274.7	5.77
104465.7	275.6	5.79
104469.6	274.5	5.76
104473.7	269.3	5.66
104477.6	265.8	5.58
104481.6	265.0	5.56
104485.7	265.7	5.58
104489.7	266.2	5.59
104493.6	267.7	5.62
104497.6	270.1	5.67
104501.6	272.5	5.72
104505.7	271.8	5.71
104509.6	269.0	5.65
104513.6	266.6	5.60
104517.6	269.3	5.65
104521.6	275.3	5.78
104525.6	278.7	5.85
104529.6	278.1	5.84
104533.6	278.7	5.85
104537.6	278.8	5.85
104541.6	276.9	5.82
104545.6	273.9	5.75
104549.6	272.8	5.73
104553.6	272.1	5.71
104557.7	271.6	5.70
104561.6	271.0	5.69
104565.6	271.4	5.70
104569.6	271.7	5.71
104573.6	272.8	5.73
104577.6	273.6	5.75
104581.6	273.8	5.75
104585.6	272.6	5.72
104589.6	271.6	5.70
104593.6	270.6	5.68
104597.6	271.1	5.69
104601.6	276.2	5.80
104605.6	288.4	6.06
104609.6	293.6	6.17
104613.6	285.0	5.98
104617.6	275.5	5.79
104621.6	272.7	5.73
104625.6	271.5	5.70
104629.6	271.1	5.69
104633.6	270.5	5.68
104637.6	270.6	5.68
104641.6	270.5	5.68
104645.6	270.3	5.68
104649.6	269.9	5.67
104653.6	270.2	5.67
104657.6	270.2	5.68
104661.6	270.7	5.69
104665.6	270.5	5.68
104669.6	270.6	5.68
104673.6	270.5	5.68
104677.6	270.7	5.69
104681.6	270.8	5.69
104685.6	271.2	5.69
104689.6	271.0	5.69
104693.6	271.6	5.70
104697.6	273.0	5.73
104701.6	277.7	5.83
104705.6	281.1	5.90
104709.6	279.3	5.86
104713.6	275.4	5.78
104717.6	273.5	5.74
104721.6	271.9	5.71
104725.6	271.9	5.71
104729.6	272.2	5.72
104733.6	272.8	5.73
104737.6	272.6	5.73
104741.6	273.2	5.74
104745.6	273.6	5.74
104749.6	273.8	5.75
104753.6	273.3	5.74
104757.6	273.0	5.73
104761.6	272.2	5.72
104765.6	272.4	5.72
104769.6	273.0	5.73
104773.6	274.7	5.77
104777.6	275.9	5.79
104781.6	276.1	5.80
104785.6	275.5	5.79
104789.6	276.5	5.81
104793.6	276.5	5.81
104797.6	275.1	5.78
104801.6	273.2	5.74
104805.6	272.9	5.73
104809.6	272.9	5.73
104813.6	272.9	5.73
104817.6	272.8	5.73
104821.5	273.4	5.74
104825.6	273.1	5.74
104829.6	272.4	5.72
104833.5	271.1	5.69
104837.5	270.8	5.69
104841.6	270.9	5.69
104845.6	272.0	5.71
104849.6	274.6	5.77
104853.6	279.9	5.88
104857.5	281.0	5.90
104861.6	276.0	5.80
104865.5	271.6	5.70
104869.6	271.1	5.69
104873.6	270.8	5.69
104877.5	271.3	5.70
104881.6	271.7	5.71
104885.6	272.1	5.71
104889.6	271.3	5.70
104893.5	271.1	5.69
104897.5	271.0	5.69
104901.6	271.4	5.70
104905.5	271.5	5.70
104909.6	271.2	5.69
104913.6	270.8	5.69
104917.6	271.6	5.70
104921.6	271.5	5.70
104925.6	271.5	5.70
104929.5	271.6	5.70
104933.6	276.1	5.80
104937.6	282.2	5.93
104941.5	282.1	5.92
104945.6	277.8	5.83
104949.6	276.4	5.80
104953.6	275.9	5.79
104957.5	275.8	5.79
104961.5	276.2	5.80
104965.5	277.3	5.82
104969.5	277.0	5.82
104973.5	275.9	5.79
104977.5	274.7	5.77
104981.5	274.2	5.76
104985.5	273.9	5.75
104989.5	275.0	5.78
104993.5	275.2	5.78
104997.5	273.6	5.74
105001.5	271.6	5.70
105005.5	271.3	5.70
105009.5	271.1	5.69
105013.5	271.6	5.70
105017.5	271.9	5.71
105021.5	272.1	5.71
105025.5	271.8	5.71
105029.5	272.1	5.71
105033.5	272.3	5.72
105037.5	273.1	5.73
105041.5	273.9	5.75
105045.5	274.3	5.76
105049.5	274.1	5.76
105053.5	274.9	5.77
105057.5	275.4	5.78
105061.5	275.5	5.78
105065.5	274.5	5.77
105069.5	273.0	5.73
105073.5	271.5	5.70
105077.5	271.4	5.70
105081.5	271.7	5.71
105085.5	272.3	5.72
105089.5	272.3	5.72
105093.5	272.4	5.72
105097.5	272.9	5.73
105101.5	278.2	5.84
105105.5	286.8	6.02
105109.5	288.2	6.05
105113.5	281.0	5.90
105117.5	276.0	5.80
105121.5	274.9	5.77
105125.5	277.2	5.82
105129.5	283.8	5.96
105133.5	290.6	6.10
105137.5	291.4	6.12
105141.5	289.3	6.07
105145.5	288.3	6.05
105149.5	292.2	6.14
105153.5	297.8	6.25
105157.5	310.9	6.53
105161.5	331.8	6.97
105165.5	341.0	7.16
105169.5	328.7	6.90
105173.5	313.2	6.58
105177.5	310.7	6.53
105181.5	321.6	6.75
105185.5	333.7	7.01
105189.5	338.5	7.11
105193.5	338.3	7.10
105197.5	338.3	7.10
105201.5	338.2	7.10
105205.5	338.9	7.12
105209.5	341.2	7.17
105213.5	344.4	7.23
105217.5	343.9	7.22
105221.5	341.9	7.18
105225.5	340.5	7.15
105229.5	340.3	7.15
105233.5	340.0	7.14
105237.5	340.2	7.15
105241.5	340.3	7.15
105245.5	341.9	7.18
105249.5	344.1	7.23
105253.5	345.9	7.26
105257.5	346.1	7.27
105261.5	346.5	7.28
105265.5	346.0	7.27
105269.5	345.9	7.26
105273.5	346.4	7.27
105277.5	347.2	7.29
105281.5	346.8	7.28
105285.4	346.5	7.28
105289.4	346.1	7.27
105293.4	346.4	7.27
105297.4	346.1	7.27
105301.4	346.3	7.27
105305.4	346.1	7.27
105309.4	348.0	7.31
105313.4	352.2	7.40
105317.4	353.1	7.42
105321.4	348.3	7.31
105325.4	345.3	7.25
105329.4	344.2	7.23
105333.4	344.2	7.23
105337.4	344.7	7.24
105341.4	350.5	7.36
105345.4	360.2	7.56
105349.4	366.9	7.70
105353.4	368.7	7.74
105357.4	370.3	7.78
105361.4	370.6	7.78
105365.4	370.6	7.78
105369.4	369.7	7.76
105373.4	369.3	7.76
105377.4	369.5	7.76
105381.4	371.6	7.80
105385.4	375.4	7.88
105389.4	379.2	7.96
105393.4	380.5	7.99
105397.5	381.9	8.02
105401.4	384.1	8.07
105405.4	386.8	8.12
105409.4	388.5	8.16
105413.4	390.9	8.21
105417.4	391.3	8.22
105421.4	388.8	8.16
105425.4	385.0	8.08
105429.4	383.6	8.05
105433.4	382.8	8.04
105437.4	384.1	8.07
105441.4	389.8	8.19
105445.4	399.6	8.39
105449.4	408.4	8.58
105453.4	417.1	8.76
105457.4	424.3	8.91
105461.4	425.8	8.94
105465.4	419.9	8.82
105469.4	412.5	8.66
105473.4	404.9	8.50
105477.4	398.6	8.37
105481.4	392.6	8.25
105485.4	386.4	8.12
105489.4	380.8	8.00
105493.4	379.8	7.98
105497.4	382.3	8.03
105501.4	385.5	8.10
105505.4	388.0	8.15
105509.4	393.2	8.26
105513.4	401.5	8.43
105517.4	410.9	8.63
105521.4	417.2	8.76
105525.4	419.9	8.82
105529.4	420.5	8.83
105533.4	422.8	8.88
105537.4	425.6	8.94
105541.4	426.8	8.96
105545.4	425.7	8.94
105549.4	426.8	8.96
105553.4	428.5	9.00
105557.4	429.2	9.01
105561.4	428.3	8.99
105565.4	427.7	8.98
105569.4	426.3	8.95
105573.4	424.0	8.90
105577.4	419.1	8.80
105581.4	415.4	8.72
105585.4	413.9	8.69
105589.4	414.0	8.69
105593.4	413.4	8.68
105597.4	412.7	8.67
105601.4	411.2	8.63
105605.4	410.7	8.62
105609.4	410.2	8.61
105613.4	410.0	8.61
105617.4	409.1	8.59
105621.4	408.5	8.58
105625.4	407.3	8.55
105629.4	406.2	8.53
105633.4	404.1	8.49
105637.4	403.5	8.47
105641.4	405.1	8.51
105645.4	407.1	8.55
105649.4	407.6	8.56
105653.4	408.6	8.58
105657.4	410.4	8.62
105661.4	415.9	8.73
105665.4	422.3	8.87
105669.4	428.7	9.00
105673.4	434.5	9.13
105677.4	440.9	9.26
105681.4	443.4	9.31
105685.4	443.9	9.32
105689.4	442.9	9.30
105693.4	441.7	9.28
105697.4	436.8	9.17
105701.4	431.9	9.07
105705.4	426.0	8.95
105709.4	421.8	8.86
105713.4	417.9	8.78
105717.4	414.7	8.71
105721.4	412.0	8.65
105725.4	412.2	8.66
105729.4	413.1	8.68
105733.4	413.6	8.69
105737.4	412.7	8.67
105741.4	412.0	8.65
105745.4	410.1	8.61
105749.4	409.0	8.59
105753.4	407.5	8.56
105757.4	406.8	8.54
105761.4	406.7	8.54
105765.4	408.1	8.57
105769.4	408.7	8.58
105773.4	409.0	8.59
105777.4	408.1	8.57
105781.4	408.2	8.57
105785.4	408.5	8.58
105789.4	407.6	8.56
105793.4	398.9	8.38
105797.4	386.9	8.13
105801.4	380.6	7.99
105805.4	380.5	7.99
105809.4	381.4	8.01
105813.4	388.7	8.16
105817.4	400.5	8.41
105821.4	406.8	8.54
105825.4	406.9	8.55
105829.4	406.9	8.54
105833.4	406.0	8.53
105837.4	405.6	8.52
105841.4	404.8	8.50
105845.4	404.4	8.49
105849.4	403.7	8.48
105853.4	404.2	8.49
105857.4	404.5	8.50
105861.4	405.1	8.51
105865.4	404.9	8.50
105869.4	405.3	8.51
105873.4	405.4	8.51
105877.3	406.1	8.53
105881.4	406.4	8.53
105885.4	407.7	8.56
105889.4	408.5	8.58
105893.4	409.1	8.59
105897.3	409.3	8.59
105901.3	410.7	8.63
105905.3	412.0	8.65
105909.3	414.1	8.70
105913.3	414.8	8.71
105917.4	413.7	8.69
105921.3	410.9	8.63
105925.3	409.6	8.60
105929.3	409.5	8.60
105933.3	410.0	8.61
105937.4	408.7	8.58
105941.4	407.7	8.56
105945.4	406.7	8.54
105949.4	406.2	8.53
105953.3	405.1	8.51
105957.3	405.1	8.51
105961.3	404.8	8.50
105965.3	404.7	8.50
105969.3	404.1	8.49
105973.3	404.3	8.49
105977.3	404.1	8.49
105981.4	404.2	8.49
105985.3	403.4	8.47
105989.3	402.9	8.46
105993.3	401.7	8.44
105997.3	399.5	8.39
106001.3	396.0	8.32
106005.3	392.4	8.24
106009.3	389.8	8.18
106013.3	391.8	8.23
106017.3	393.2	8.26
106021.3	393.4	8.26
106025.3	393.9	8.27
106029.3	395.4	8.30
106033.3	395.9	8.31
106037.3	395.2	8.30
106041.3	392.4	8.24
106045.3	389.8	8.19
106049.3	388.6	8.16
106053.3	389.1	8.17
106057.3	389.9	8.19
106061.3	392.7	8.25
106065.3	394.6	8.29
106069.3	398.3	8.36
106073.3	403.9	8.48
106077.3	406.9	8.54
106081.3	402.4	8.45
106085.3	396.8	8.33
106089.3	393.7	8.27
106093.3	393.5	8.26
106097.3	392.5	8.24
106101.3	389.0	8.17
106105.3	383.9	8.06
106109.3	383.1	8.04
106113.3	384.4	8.07
106117.3	384.2	8.07
106121.3	381.8	8.02
106125.3	380.0	7.98
106129.3	379.3	7.96
106133.3	380.1	7.98
106137.3	380.3	7.99
106141.3	380.6	7.99
106145.3	380.3	7.99
106149.3	380.2	7.99
106153.3	379.8	7.98
106157.3	379.9	7.98
106161.3	379.5	7.97
106165.3	379.7	7.97
106169.3	379.2	7.96
106173.3	379.5	7.97
106177.3	379.7	7.97
106181.3	380.1	7.98
106185.3	380.0	7.98
106189.3	380.1	7.98
106193.3	380.4	7.99
106197.3	381.3	8.01
106201.3	381.6	8.01
106205.3	382.5	8.03
106209.3	382.6	8.03
106213.3	383.3	8.05
106217.3	383.9	8.06
106221.3	384.8	8.08
106225.3	385.2	8.09
106229.3	386.0	8.11
106233.3	386.3	8.11
106237.3	387.8	8.14
106241.3	389.8	8.19
106245.3	391.1	8.21
106249.3	389.8	8.19
106253.3	387.5	8.14
106257.3	386.2	8.11
106261.3	387.6	8.14
106265.3	390.0	8.19
106269.3	392.1	8.23
106273.3	392.0	8.23
106277.3	391.8	8.23
106281.3	391.3	8.22
106285.3	391.0	8.21
106289.3	389.8	8.19
106293.3	388.7	8.16
106297.3	387.1	8.13
106301.3	386.8	8.12
106305.3	388.7	8.16
106309.3	391.1	8.21
106313.3	391.7	8.23
106317.3	392.5	8.24
106321.3	393.4	8.26
106325.3	392.8	8.25
106329.3	390.0	8.19
106333.3	389.6	8.18
106337.3	390.1	8.19
106341.3	391.3	8.22
106345.3	392.5	8.24
106349.3	392.5	8.24
106353.3	391.6	8.22
106357.3	392.7	8.25
106361.3	393.3	8.26
106365.3	392.7	8.25
106369.3	391.2	8.22
106373.3	391.3	8.22
106377.3	391.8	8.23
106381.3	391.5	8.22
106385.3	390.0	8.19
106389.3	389.8	8.19
106393.3	390.2	8.19
106397.3	391.5	8.22
106401.3	392.8	8.25
106405.3	396.7	8.33
106409.3	402.9	8.46
106413.3	410.0	8.61
106417.3	413.1	8.68
106421.3	419.5	8.81
106425.3	431.8	9.07
106429.3	447.9	9.41
106433.3	463.9	9.74
106437.3	471.8	9.91
106441.3	470.5	9.88
106445.3	465.4	9.77
106449.3	457.3	9.60
106453.3	453.8	9.53
106457.3	454.4	9.54
106461.3	453.7	9.53
106465.3	451.7	9.48
106469.3	462.8	9.72
106473.3	478.3	10.04
106477.3	482.6	10.13
106481.3	484.0	10.16
106485.3	486.4	10.21
106489.3	483.1	10.14
106493.3	475.6	9.99
106497.3	464.4	9.75
106501.3	457.6	9.61
106505.3	456.1	9.58
106509.2	452.2	9.50
106513.2	443.4	9.31
106517.3	438.8	9.22
106521.3	437.9	9.19
106525.3	436.7	9.17
106529.3	432.9	9.09
106533.3	427.9	8.99
106537.3	423.9	8.90
106541.2	422.4	8.87
106545.3	420.0	8.82
106549.2	417.7	8.77
106553.2	415.6	8.73
106557.3	414.6	8.71
106561.2	413.1	8.67
106565.3	412.6	8.67
106569.2	412.6	8.66
106573.2	412.9	8.67
106577.3	412.5	8.66
106581.2	413.9	8.69
106585.2	413.6	8.69
106589.3	410.8	8.63
106593.2	413.4	8.68
106597.2	426.8	8.96
106601.2	439.7	9.23
106605.3	445.8	9.36
106609.2	447.3	9.39
106613.2	448.4	9.42
106617.3	447.1	9.39
106621.2	441.6	9.27
106625.2	434.0	9.11
106629.2	431.0	9.05
106633.2	424.4	8.91
106637.2	411.2	8.64
106641.2	403.2	8.47
106645.2	402.0	8.44
106649.2	400.0	8.40
106653.2	399.1	8.38
106657.2	399.0	8.38
106661.2	406.6	8.54
106665.2	417.3	8.76
106669.2	414.4	8.70
106673.3	403.6	8.48
106677.2	405.9	8.52
106681.2	414.8	8.71
106685.2	422.4	8.87
106689.2	428.3	8.99
106693.2	432.1	9.07
106697.2	433.6	9.11
106701.2	435.2	9.14
106705.2	435.7	9.15
106709.2	437.1	9.18
106713.2	438.1	9.20
106717.2	439.9	9.24
106721.2	440.5	9.25
106725.2	441.3	9.27
106729.2	443.8	9.32
106733.2	445.3	9.35
106737.2	442.6	9.30
106741.2	443.1	9.31
106745.2	446.4	9.37
106749.2	448.1	9.41
106753.3	446.9	9.39
106757.3	445.5	9.36
106761.3	444.3	9.33
106765.2	445.8	9.36
106769.2	447.8	9.40
106773.3	449.6	9.44
106777.3	450.6	9.46
106781.3	451.5	9.48
106785.3	451.1	9.47
106789.3	452.8	9.51
106793.3	453.3	9.52
106797.3	449.3	9.44
106801.3	438.7	9.21
106805.3	434.5	9.12
106809.3	439.1	9.22
106813.3	438.3	9.20
106817.3	418.9	8.80
106821.3	393.5	8.26
106825.2	379.7	7.97
106829.2	377.5	7.93
106833.2	377.8	7.93
106837.2	388.9	8.17
106841.2	408.5	8.58
106845.2	421.4	8.85
106849.3	425.1	8.93
106853.2	429.0	9.01
106857.2	433.3	9.10
106861.3	436.6	9.17
106865.3	436.2	9.16
106869.2	440.0	9.24
106873.3	445.8	9.36
106877.3	449.5	9.44
106881.2	451.3	9.48
106885.3	453.5	9.52
106889.3	454.8	9.55
106893.2	457.6	9.61
106897.3	459.8	9.65
106901.3	462.0	9.70
106905.2	462.6	9.72
106909.3	461.9	9.70
106913.3	460.1	9.66
106917.2	459.6	9.65
106921.3	459.1	9.64
106925.2	460.6	9.67
106929.3	461.7	9.70
106933.3	460.5	9.67
106937.3	456.7	9.59
106941.3	453.9	9.53
106945.3	450.8	9.47
106949.2	449.4	9.44
106953.2	448.5	9.42
106957.2	449.3	9.44
106961.2	449.9	9.45
106965.2	449.7	9.44
106969.2	447.8	9.40
106973.2	447.7	9.40
106977.2	446.7	9.38
106981.2	444.5	9.33
106985.2	442.8	9.30
106989.3	442.6	9.30
106993.2	438.0	9.20
106997.2	431.3	9.06
107001.2	424.6	8.92
107005.2	424.3	8.91
107009.2	434.3	9.12
107013.2	447.0	9.39
107017.2	451.8	9.49
107021.2	452.7	9.51
107025.2	451.5	9.48
107029.2	450.6	9.46
107033.2	449.6	9.44
107037.2	450.7	9.46
107041.2	451.5	9.48
107045.2	452.0	9.49
107049.2	452.7	9.51
107053.2	455.5	9.57
107057.2	457.0	9.60
107061.2	457.5	9.61
107065.2	454.5	9.54
107069.2	452.2	9.50
107073.2	452.2	9.50
107077.2	454.1	9.54
107081.2	454.2	9.54
107085.2	453.8	9.53
107089.2	452.2	9.50
107093.2	452.0	9.49
107097.2	451.8	9.49
107101.2	451.8	9.49
107105.2	450.3	9.46
107109.2	450.8	9.47
107113.2	451.9	9.49
107117.2	453.5	9.52
107121.2	453.6	9.52
107125.2	453.2	9.52
107129.2	452.2	9.50
107133.2	453.1	9.51
107137.2	453.5	9.52
107141.2	453.2	9.52
107145.2	450.9	9.47
107149.2	448.8	9.43
107153.2	446.2	9.37
107157.2	445.6	9.36
107161.2	444.8	9.34
107165.2	444.4	9.33
107169.2	443.9	9.32
107173.2	444.4	9.33
107177.2	444.5	9.34
107181.2	445.4	9.35
107185.2	444.6	9.34
107189.2	443.5	9.31
107193.2	441.2	9.27
107197.2	439.9	9.24
107201.2	438.6	9.21
107205.2	439.2	9.22
107209.2	439.5	9.23
107213.2	440.1	9.24
107217.2	439.1	9.22
107221.2	438.2	9.20
107225.2	436.9	9.18
107229.2	436.8	9.17
107233.2	435.7	9.15
107237.2	435.3	9.14
107241.2	435.3	9.14
107245.2	436.5	9.17
107249.2	436.5	9.17
107253.2	437.6	9.19
107257.2	438.3	9.20
107261.2	439.9	9.24
107265.2	439.7	9.23
107269.2	438.0	9.20
107273.2	435.9	9.15
107277.2	436.5	9.17
107281.2	435.1	9.14
107285.2	434.8	9.13
107289.2	438.0	9.20
107293.2	441.9	9.28
107297.2	442.9	9.30
107301.2	442.4	9.29
107305.1	438.2	9.20
107309.2	432.6	9.08
107313.2	427.3	8.97
107317.2	426.3	8.95
107321.2	427.1	8.97
107325.2	429.8	9.03
107329.2	433.3	9.10
107333.2	436.2	9.16
107337.2	435.3	9.14
107341.2	434.4	9.12
107345.2	433.2	9.10
107349.2	432.5	9.08
107353.2	431.3	9.06
107357.2	431.0	9.05
107361.2	430.2	9.03
107365.2	429.7	9.02
107369.2	428.8	9.00
107373.2	429.4	9.02
107377.2	430.1	9.03
107381.2	431.4	9.06
107385.2	430.7	9.04
107389.2	430.1	9.03
107393.2	430.3	9.04
107397.2	431.7	9.07
107401.2	433.3	9.10
107405.2	440.1	9.24
107409.2	448.6	9.42
107413.2	449.1	9.43
107417.1	439.7	9.23
107421.2	430.8	9.05
107425.1	422.2	8.87
107429.2	413.7	8.69
107433.2	405.5	8.52
107437.1	399.8	8.40
107441.1	394.8	8.29
107445.1	396.9	8.34
107449.1	408.3	8.57
107453.2	420.7	8.84
107457.2	428.5	9.00
107461.2	435.4	9.14
107465.2	437.8	9.19
107469.1	433.9	9.11
107473.2	423.1	8.88
107477.2	410.0	8.61
107481.2	391.6	8.22
107485.2	358.7	7.53
107489.2	321.7	6.76
107493.1	313.1	6.57
107497.2	316.9	6.65
107501.1	302.2	6.35
107505.1	278.2	5.84
107509.2	265.8	5.58
107513.2	267.8	5.62
107517.1	278.3	5.84
107521.1	286.8	6.02
107525.2	293.6	6.17
107529.1	300.1	6.30
107533.2	306.8	6.44
107537.1	311.3	6.54
107541.2	315.3	6.62
107545.2	319.9	6.72
107549.2	327.1	6.87
107553.1	335.7	7.05
107557.2	355.0	7.46
107561.2	382.3	8.03
107565.2	397.2	8.34
107569.1	395.2	8.30
107573.1	383.4	8.05
107577.1	368.0	7.73
107581.1	360.5	7.57
107585.1	360.2	7.56
107589.1	361.7	7.60
107593.2	359.3	7.54
107597.1	357.5	7.51
107601.1	358.4	7.53
107605.1	359.5	7.55
107609.1	358.1	7.52
107613.1	354.3	7.44
107617.1	350.0	7.35
107621.1	352.9	7.41
107625.1	357.4	7.50
107629.1	359.8	7.56
107633.1	360.3	7.57
107637.1	359.9	7.56
107641.1	360.6	7.57
107645.1	362.8	7.62
107649.1	362.5	7.61
107653.1	363.7	7.64
107657.1	366.1	7.69
107661.1	367.7	7.72
107665.1	366.7	7.70
107669.1	364.5	7.65
107673.1	360.1	7.56
107677.1	356.4	7.48
107681.1	354.7	7.45
107685.1	356.3	7.48
107689.1	357.9	7.52
107693.2	358.6	7.53
107697.1	357.6	7.51
107701.1	357.5	7.51
107705.1	357.3	7.50
107709.1	357.1	7.50
107713.1	356.7	7.49
107717.1	357.3	7.50
107721.1	356.7	7.49
107725.1	355.3	7.46
107729.1	352.9	7.41
107733.1	350.5	7.36
107737.1	345.6	7.26
107741.1	342.1	7.18
107745.1	341.3	7.17
107749.1	342.4	7.19
107753.1	344.3	7.23
107757.1	347.1	7.29
107761.1	348.1	7.31
107765.1	349.3	7.33
107769.1	349.4	7.34
107773.1	347.6	7.30
107777.1	344.9	7.24
107781.1	344.4	7.23
107785.1	344.4	7.23
107789.1	344.5	7.23
107793.1	343.4	7.21
107797.1	341.8	7.18
107801.1	340.1	7.14
107805.1	339.4	7.13
107809.1	337.8	7.09
107813.1	336.8	7.07
107817.1	336.0	7.06
107821.1	336.5	7.07
107825.1	336.7	7.07
107829.1	336.8	7.07
107833.1	336.5	7.07
107837.1	337.0	7.08
107841.1	336.8	7.07
107845.1	336.8	7.07
107849.1	336.4	7.06
107853.1	336.2	7.06
107857.1	335.4	7.04
107861.1	335.4	7.04
107865.1	334.9	7.03
107869.1	334.9	7.03
107873.1	334.6	7.03
107877.1	334.5	7.02
107881.1	333.6	7.00
107885.1	333.2	7.00
107889.1	332.5	6.98
107893.1	332.4	6.98
107897.1	331.8	6.97
107901.1	331.9	6.97
107905.1	331.5	6.96
107909.1	330.5	6.94
107913.1	329.0	6.91
107917.1	329.8	6.92
107921.1	330.0	6.93
107925.1	330.1	6.93
107929.1	330.1	6.93
107933.1	330.2	6.93
107937.1	329.7	6.92
107941.1	329.8	6.93
107945.1	329.6	6.92
107949.1	329.9	6.93
107953.1	329.4	6.92
107957.1	329.6	6.92
107961.1	329.9	6.93
107965.1	330.0	6.93
107969.1	328.4	6.90
107973.1	326.0	6.85
107977.1	322.5	6.77
107981.0	321.1	6.74
107985.1	321.5	6.75
107989.1	322.6	6.77
107993.1	322.9	6.78
107997.1	324.9	6.82
108001.1	326.9	6.87
108005.1	328.1	6.89
108009.1	327.3	6.87
108013.1	327.0	6.87
108017.1	326.4	6.86
108021.0	326.3	6.85
108025.1	325.0	6.82
108029.1	324.2	6.81
108033.0	323.9	6.80
108037.1	323.1	6.78
108041.1	319.3	6.71
108045.0	315.1	6.62
108049.1	310.9	6.53
108053.1	309.3	6.49
108057.1	309.9	6.51
108061.0	311.5	6.54
108065.1	310.5	6.52
108069.1	308.4	6.48
108073.0	307.4	6.45
108077.1	306.9	6.45
108081.1	304.7	6.40
108085.1	304.7	6.40
108089.1	307.4	6.46
108093.0	311.1	6.53
108097.1	311.8	6.55
108101.0	310.7	6.52
108105.0	309.6	6.50
108109.1	310.1	6.51
108113.0	307.5	6.46
108117.1	303.4	6.37
108121.1	302.2	6.35
108125.0	303.9	6.38
108129.0	304.5	6.39
108133.0	303.8	6.38
108137.0	301.1	6.32
108141.1	299.6	6.29
108145.1	299.1	6.28
108149.0	300.0	6.30
108153.1	300.9	6.32
108157.1	301.8	6.34
108161.0	301.6	6.33
108165.1	301.3	6.33
108169.1	300.6	6.31
108173.0	300.7	6.31
108177.0	300.2	6.30
108181.1	300.1	6.30
108185.0	299.8	6.29
108189.1	298.8	6.27
108193.1	296.4	6.22
108197.0	295.3	6.20
108201.1	294.5	6.18
108205.1	293.2	6.16
108209.1	290.7	6.10
108213.1	289.1	6.07
108217.1	288.1	6.05
108221.0	288.3	6.05
108225.0	288.4	6.06
108229.0	288.2	6.05
108233.0	286.8	6.02
108237.0	286.9	6.02
108241.1	287.4	6.04
108245.0	287.9	6.05
108249.0	287.6	6.04
108253.0	288.2	6.05
108257.0	287.9	6.05
108261.0	287.0	6.03
108265.0	286.7	6.02
108269.1	288.0	6.05
108273.1	288.6	6.06
108277.0	288.9	6.07
108281.0	288.7	6.06
108285.0	288.7	6.06
108289.0	288.2	6.05
108293.0	289.0	6.07
108297.0	289.8	6.09
108301.0	289.2	6.07
108305.0	287.0	6.03
108309.0	286.9	6.03
108313.0	288.3	6.05
108317.0	288.2	6.05
108321.0	283.1	5.94
108325.0	276.9	5.81
108329.1	273.7	5.75
108333.0	273.2	5.74
108337.0	273.3	5.74
108341.0	274.4	5.76
108344.9	274.1	5.76
108349.0	273.9	5.75
108353.0	273.7	5.75
108357.0	274.0	5.75
108361.0	274.8	5.77
108365.0	276.2	5.80
108369.0	275.6	5.79
108373.0	275.1	5.78
108377.0	275.5	5.79
108381.0	278.0	5.84
108385.0	279.2	5.86
108389.0	277.9	5.84
108393.0	275.7	5.79
108397.0	275.8	5.79
108401.0	277.0	5.82
108405.0	280.1	5.88
108409.0	281.3	5.91
108413.0	279.5	5.87
108417.0	277.3	5.82
108421.0	278.5	5.85
108425.0	280.0	5.88
108429.0	280.4	5.89
108433.0	279.9	5.88
108437.0	279.6	5.87
108441.0	278.7	5.85
108445.0	277.9	5.84
108449.0	276.7	5.81
108453.0	277.0	5.82
108457.0	277.5	5.83
108461.0	277.9	5.84
108465.0	277.4	5.83
108469.0	277.5	5.83
108473.0	277.6	5.83
108477.0	278.0	5.84
108481.0	278.0	5.84
108485.0	278.3	5.84
108489.0	278.1	5.84
108493.0	278.3	5.85
108497.0	278.1	5.84
108501.0	278.7	5.85
108505.0	279.6	5.87
108509.0	281.1	5.90
108513.0	281.7	5.92
108517.0	282.7	5.94
108521.0	283.8	5.96
108525.0	285.5	5.99
108529.0	287.4	6.04
108533.0	290.1	6.09
108537.0	291.9	6.13
108540.9	293.5	6.16
108545.0	293.9	6.17
108549.0	294.5	6.18
108552.9	295.5	6.21
108556.9	297.6	6.25
108561.0	299.2	6.28
108565.0	300.9	6.32
108568.9	301.9	6.34
108573.0	303.1	6.36
108576.9	304.3	6.39
108581.0	305.7	6.42
108584.9	305.6	6.42
108589.0	305.2	6.41
108593.0	305.1	6.41
108597.0	306.6	6.44
108600.9	308.6	6.48
108604.9	311.2	6.54
108608.9	313.9	6.59
108612.9	315.5	6.63
108616.9	314.2	6.60
108621.0	312.9	6.57
108625.0	312.5	6.56
108629.0	313.2	6.58
108632.9	313.9	6.59
108636.9	314.6	6.61
108640.9	315.3	6.62
108645.0	316.4	6.65
108649.0	317.3	6.66
108652.9	318.4	6.69
108656.9	318.9	6.70
108660.9	319.8	6.72
108665.0	320.6	6.73
108668.9	321.1	6.74
108672.9	320.8	6.74
108676.9	320.6	6.73
108681.0	319.8	6.72
108685.0	319.5	6.71
108688.9	319.3	6.71
108692.9	320.1	6.72
108696.9	320.5	6.73
108700.9	321.7	6.75
108704.9	322.7	6.78
108708.9	323.7	6.80
108713.0	324.1	6.81
108716.9	324.9	6.82
108720.9	324.8	6.82
108724.9	324.8	6.82
108728.9	324.3	6.81
108732.9	324.3	6.81
108736.9	324.3	6.81
108741.0	324.3	6.81
108745.0	323.7	6.80
108749.0	325.0	6.82
108752.9	326.2	6.85
108757.0	326.1	6.85
108760.9	325.2	6.83
108764.9	325.6	6.84
108768.9	325.7	6.84
108773.0	325.5	6.83
108777.0	324.5	6.81
108780.9	324.8	6.82
108784.9	325.3	6.83
108788.9	325.2	6.83
108792.9	323.4	6.79
108796.9	322.2	6.77
108801.0	320.5	6.73
108804.9	319.5	6.71
108808.9	319.6	6.71
108812.9	320.1	6.72
108816.9	320.0	6.72
108820.9	321.6	6.75
108824.9	323.4	6.79
108829.0	324.5	6.81
108832.9	323.9	6.80
108836.9	322.7	6.78
108840.9	320.9	6.74
108844.9	320.6	6.73
108848.9	320.7	6.73
108852.9	321.5	6.75
108856.9	321.6	6.75
108860.9	322.3	6.77
108864.9	323.7	6.80
108868.9	325.1	6.83
108872.9	325.1	6.83
108876.9	325.9	6.84
108880.9	327.3	6.87
108884.9	327.9	6.89
108888.9	324.4	6.81
108893.0	322.2	6.77
108896.9	322.1	6.76
108900.9	319.6	6.71
108904.9	318.0	6.68
108908.9	320.3	6.73
108912.9	321.7	6.76
108916.9	322.1	6.76
108920.9	321.7	6.76
108924.9	321.9	6.76
108928.9	321.5	6.75
108932.9	321.0	6.74
108936.9	319.9	6.72
108940.9	318.6	6.69
108944.9	316.4	6.64
108948.9	315.1	6.62
108952.9	313.7	6.59
108956.9	312.8	6.57
108960.9	312.8	6.57
108964.8	315.0	6.61
108968.9	318.1	6.68
108972.9	320.9	6.74
108976.9	322.7	6.78
108980.9	327.7	6.88
108984.9	332.6	6.99
108988.9	334.5	7.02
108992.9	334.2	7.02
108996.8	335.9	7.05
109000.9	339.0	7.12
109004.9	341.6	7.17
109008.9	341.3	7.17
109012.9	339.9	7.14
109016.9	338.2	7.10
109020.9	337.6	7.09
109024.8	337.3	7.08
109028.9	337.6	7.09
109032.9	337.2	7.08
109036.9	337.4	7.09
109040.9	337.2	7.08
109044.9	337.2	7.08
109048.9	334.8	7.03
109052.9	331.4	6.96
109056.9	330.7	6.94
109060.9	332.0	6.97
109064.9	331.5	6.96
109068.9	327.8	6.88
109072.8	321.0	6.74
109076.9	317.7	6.67
109080.9	317.1	6.66
109084.9	318.8	6.69
109088.8	320.5	6.73
109092.9	323.4	6.79
109096.9	326.3	6.85
109100.9	332.4	6.98
109104.9	337.1	7.08
109108.8	335.2	7.04
109112.9	331.1	6.95
109116.9	328.6	6.90
109120.8	322.8	6.78
109124.9	319.3	6.70
109128.9	325.0	6.83
109132.9	334.9	7.03
109136.9	336.3	7.06
109140.9	334.5	7.02
109144.9	340.0	7.14
109148.8	351.5	7.38
109152.8	357.1	7.50
109156.9	354.3	7.44
109160.8	347.6	7.30
109164.9	339.5	7.13
109168.8	331.5	6.96
109172.8	329.3	6.92
109176.9	328.9	6.91
109180.9	331.0	6.95
109184.9	336.4	7.06
109188.9	340.9	7.16
109192.9	342.9	7.20
109196.9	345.9	7.26
109200.8	349.5	7.34
109204.9	353.9	7.43
109208.8	357.0	7.50
109212.8	358.5	7.53
109216.8	358.3	7.52
109220.8	359.7	7.55
109224.8	361.2	7.59
109228.8	361.1	7.58
109232.8	359.6	7.55
109236.8	359.6	7.55
109240.8	360.3	7.57
109244.8	361.0	7.58
109248.8	359.0	7.54
109252.8	356.4	7.48
109256.8	353.9	7.43
109260.8	352.0	7.39
109264.8	350.7	7.36
109268.8	351.8	7.39
109272.8	353.3	7.42
109276.8	355.1	7.46
109280.8	356.0	7.48
109284.8	356.7	7.49
109288.8	357.7	7.51
109292.8	359.9	7.56
109296.8	361.5	7.59
109300.8	363.4	7.63
109304.8	364.4	7.65
109308.8	365.5	7.67
109312.8	366.5	7.70
109316.8	368.3	7.73
109320.8	369.6	7.76
109324.8	371.2	7.79
109328.8	373.3	7.84
109332.8	377.6	7.93
109336.8	382.3	8.03
109340.8	386.5	8.12
109344.8	386.8	8.12
109348.8	384.4	8.07
109352.8	383.4	8.05
109356.8	385.7	8.10
109360.8	389.3	8.17
109364.8	395.7	8.31
109368.8	401.3	8.43
109372.8	403.6	8.47
109376.8	405.6	8.52
109380.8	408.9	8.59
109384.8	408.7	8.58
109388.8	410.1	8.61
109392.8	412.7	8.67
109396.8	414.4	8.70
109400.8	414.8	8.71
109404.8	415.7	8.73
109408.8	413.4	8.68
109412.8	410.2	8.61
109416.8	407.4	8.56
109420.8	406.8	8.54
109424.8	406.4	8.54
109428.8	407.1	8.55
109432.8	408.0	8.57
109436.8	409.2	8.59
109440.8	408.6	8.58
109444.8	407.2	8.55
109448.8	406.3	8.53
109452.8	406.7	8.54
109456.8	407.8	8.56
109460.8	408.4	8.58
109464.8	405.9	8.52
109468.8	405.6	8.52
109472.8	408.1	8.57
109476.8	407.9	8.56
109480.8	403.9	8.48
109484.8	401.9	8.44
109488.8	401.7	8.43
109492.8	401.5	8.43
109496.8	399.6	8.39
109500.8	397.4	8.34
109504.8	392.9	8.25
109508.8	387.0	8.13
109512.8	381.8	8.02
109516.8	372.7	7.83
109520.8	347.3	7.29
109524.8	294.4	6.18
109528.8	243.7	5.12
109532.8	242.7	5.10
109536.8	254.5	5.34
109540.8	242.1	5.08
109544.8	237.2	4.98
109548.8	255.5	5.37
109552.8	275.7	5.79
109556.8	287.8	6.04
109560.8	291.7	6.13
109564.8	289.3	6.08
109568.8	285.8	6.00
109572.8	285.7	6.00
109576.8	283.2	5.95
109580.8	279.0	5.86
109584.8	277.6	5.83
109588.8	279.8	5.88
109592.8	282.5	5.93
109596.8	284.7	5.98
109600.7	286.1	6.01
109604.8	285.4	5.99
109608.8	282.2	5.93
109612.8	284.0	5.96
109616.8	290.4	6.10
109620.8	305.9	6.42
109624.8	327.6	6.88
109628.7	322.4	6.77
109632.7	293.4	6.16
109636.7	278.5	5.85
109640.7	277.5	5.83
109644.7	279.2	5.86
109648.7	281.2	5.90
109652.7	280.1	5.88
109656.7	277.2	5.82
109660.7	275.5	5.79
109664.7	273.4	5.74
109668.7	272.6	5.72
109672.8	273.3	5.74
109676.7	277.1	5.82
109680.8	288.1	6.05
109684.7	302.1	6.34
109688.7	308.2	6.47
109692.7	310.4	6.52
109696.7	315.7	6.63
109700.7	328.8	6.90
109704.7	345.5	7.25
109708.7	354.7	7.45
109712.7	352.7	7.41
109716.7	346.0	7.26
109720.7	342.9	7.20
109724.7	344.9	7.24
109728.7	348.2	7.31
109732.7	352.3	7.40
109736.7	355.0	7.46
109740.7	359.8	7.56
109744.7	364.0	7.64
109748.7	364.2	7.65
109752.7	362.0	7.60
109756.7	361.5	7.59
109760.7	361.4	7.59
109764.7	362.7	7.62
109768.7	363.9	7.64
109772.7	363.6	7.64
109776.7	361.2	7.59
109780.7	359.3	7.54
109784.7	360.3	7.57
109788.7	364.9	7.66
109792.7	368.3	7.73
109796.7	369.9	7.77
109800.7	369.9	7.77
109804.7	370.7	7.79
109808.7	370.9	7.79
109812.7	370.7	7.78
109816.7	369.9	7.77
109820.7	369.4	7.76
109824.7	368.2	7.73
109828.7	367.0	7.71
109832.7	365.3	7.67
109836.7	364.0	7.64
109840.7	361.6	7.59
109844.7	358.3	7.52
109848.7	356.3	7.48
109852.7	357.6	7.51
109856.7	357.8	7.51
109860.7	355.8	7.47
109864.7	354.4	7.44
109868.7	355.7	7.47
109872.7	356.5	7.49
109876.7	357.3	7.50
109880.7	358.5	7.53
109884.7	359.4	7.55
109888.7	358.6	7.53
109892.7	358.0	7.52
109896.7	357.2	7.50
109900.7	356.1	7.48
109904.7	354.8	7.45
109908.7	354.8	7.45
109912.7	354.7	7.45
109916.7	354.9	7.45
109920.7	354.7	7.45
109924.7	354.8	7.45
109928.7	354.7	7.45
109932.7	354.3	7.44
109936.7	352.3	7.40
109940.7	350.1	7.35
109944.7	348.4	7.32
109948.7	348.0	7.31
109952.7	346.7	7.28
109956.7	344.7	7.24
109960.7	341.5	7.17
109964.7	335.9	7.05
109968.7	325.3	6.83
109972.7	316.3	6.64
109976.7	311.5	6.54
109980.7	309.8	6.51
109984.7	307.9	6.47
109988.7	305.6	6.42
109992.7	304.4	6.39
109996.7	303.7	6.38
110000.7	302.3	6.35
110004.7	301.7	6.34
110008.7	299.1	6.28
110012.7	296.5	6.23
110016.7	296.2	6.22
110020.7	296.4	6.22
110024.7	294.5	6.18
110028.7	291.5	6.12
110032.7	282.0	5.92
110036.7	263.8	5.54
110040.7	245.9	5.16
110044.7	242.1	5.08
110048.7	250.1	5.25
110052.7	255.6	5.37
110056.7	255.2	5.36
110060.7	253.8	5.33
110064.7	251.5	5.28
110068.7	252.7	5.31
110072.7	258.1	5.42
110076.7	265.2	5.57
110080.7	270.9	5.69
110084.7	274.9	5.77
110088.7	276.6	5.81
110092.7	271.1	5.69
110096.7	257.3	5.40
110100.7	244.9	5.14
110104.7	239.7	5.03
110108.7	238.8	5.02
110112.7	235.6	4.95
110116.7	228.3	4.79
110120.7	217.1	4.56
110124.7	206.1	4.33
110128.7	202.6	4.25
110132.7	205.1	4.31
110136.7	203.1	4.26
110140.7	197.5	4.15
110144.7	186.9	3.93
110148.7	170.7	3.58
110152.7	153.1	3.21
110156.7	134.0	2.81
110160.7	121.4	2.55
110164.7	121.9	2.56
110168.7	124.1	2.61
110172.7	117.2	2.46
110176.7	104.1	2.19
110180.6	90.3	1.90
110184.6	77.6	1.63
110188.7	70.6	1.48
110192.6	68.9	1.45
110196.6	70.8	1.49
110200.6	75.1	1.58
110204.6	79.2	1.66
110208.6	81.4	1.71
110212.6	80.7	1.69
110216.6	78.7	1.65
110220.6	80.0	1.68
110224.7	84.4	1.77
110228.6	87.7	1.84
110232.6	90.9	1.91
110236.6	96.2	2.02
110240.6	100.2	2.10
110244.6	101.4	2.13
110248.6	102.1	2.14
110252.6	102.6	2.15
110256.6	102.6	2.16
110260.6	103.7	2.18
110264.6	104.0	2.18
110268.6	103.4	2.17
110272.6	102.6	2.15
110276.6	101.5	2.13
110280.6	100.4	2.11
110284.6	99.9	2.10
110288.6	99.4	2.09
110292.6	98.4	2.07
110296.6	96.0	2.02
110300.6	93.2	1.96
110304.6	90.1	1.89
110308.6	86.1	1.81
110312.6	81.7	1.72
110316.6	78.3	1.64
110320.6	75.3	1.58
110324.6	74.3	1.56
110328.6	72.1	1.51
110332.6	65.8	1.38
110336.6	60.3	1.27
110340.6	58.6	1.23
110344.6	58.4	1.23
110348.6	58.3	1.23
110352.7	58.6	1.23
110356.6	59.4	1.25
110360.6	61.7	1.30
110364.6	66.4	1.39
110368.6	70.1	1.47
110372.6	70.9	1.49
110376.6	69.0	1.45
110380.6	64.3	1.35
110384.6	59.6	1.25
110388.6	57.4	1.21
110392.6	57.1	1.20
110396.6	58.3	1.22
110400.6	59.4	1.25
110404.6	60.1	1.26
110408.6	60.6	1.27
110412.6	60.9	1.28
110416.6	60.7	1.27
110420.6	60.7	1.27
110424.6	59.9	1.26
110428.6	58.2	1.22
110432.6	56.9	1.19
110436.6	56.7	1.19
110440.6	56.9	1.20
110444.6	57.3	1.20
110448.6	57.7	1.21
110452.6	57.9	1.22
110456.6	57.8	1.21
110460.6	58.1	1.22
110464.6	58.5	1.23
110468.6	57.7	1.21
110472.6	55.6	1.17
110476.6	54.0	1.13
110480.6	53.2	1.12
110484.6	52.8	1.11
110488.6	53.1	1.11
110492.6	54.0	1.13
110496.6	54.3	1.14
110500.6	53.6	1.13
110504.6	52.5	1.10
110508.6	52.0	1.09
110512.6	51.9	1.09
110516.6	51.9	1.09
110520.6	51.8	1.09
110524.6	51.8	1.09
110528.6	51.8	1.09
110532.6	51.7	1.08
110536.6	51.9	1.09
110540.6	52.5	1.10
110544.6	52.9	1.11
110548.6	53.6	1.12
110552.6	53.6	1.12
110556.6	53.0	1.11
110560.6	53.8	1.13
110564.6	55.3	1.16
110568.6	55.8	1.17
110572.6	55.1	1.16
110576.6	53.5	1.12
110580.6	52.6	1.10
110584.6	52.3	1.10
110588.6	52.3	1.10
110592.6	52.4	1.10
110596.6	52.4	1.10
110600.6	52.5	1.10
110604.6	53.5	1.12
110608.6	55.9	1.17
110612.6	57.6	1.21
110616.6	56.0	1.18
110620.6	56.1	1.18
110624.6	59.7	1.25
110628.6	62.3	1.31
110632.6	63.5	1.33
110636.6	65.0	1.37
110640.6	66.8	1.40
110644.6	68.0	1.43
110648.6	68.5	1.44
110652.6	69.2	1.45
110656.6	69.1	1.45
110660.6	67.7	1.42
110664.6	66.6	1.40
110668.6	67.9	1.43
110672.6	69.1	1.45
110676.6	68.7	1.44
110680.6	68.1	1.43
110684.6	67.7	1.42
110688.6	67.0	1.41
110692.6	66.5	1.40
110696.6	66.6	1.40
110700.6	67.2	1.41
110704.6	67.2	1.41
110708.6	66.8	1.40
110712.6	66.5	1.40
110716.6	65.6	1.38
110720.6	64.6	1.36
110724.6	63.6	1.34
110728.6	62.0	1.30
110732.6	61.1	1.28
110736.6	60.7	1.28
110740.6	60.0	1.26
110744.6	58.8	1.23
110748.6	58.0	1.22
110752.6	57.8	1.21
110756.6	57.2	1.20
110760.6	56.7	1.19
110764.6	56.6	1.19
110768.6	56.4	1.18
110772.6	55.9	1.17
110776.6	55.4	1.16
110780.6	55.3	1.16
110784.6	55.4	1.16
110788.6	55.4	1.16
110792.6	55.2	1.16
110796.6	55.3	1.16
110800.5	55.2	1.16
110804.5	55.1	1.16
110808.5	55.1	1.16
110812.5	55.1	1.16
110816.5	55.0	1.16
110820.6	55.0	1.15
110824.5	54.6	1.15
110828.5	54.1	1.14
110832.5	53.9	1.13
110836.6	53.9	1.13
110840.6	53.9	1.13
110844.6	54.8	1.15
110848.6	56.1	1.18
110852.5	56.3	1.18
110856.5	55.4	1.16
110860.5	54.6	1.15
110864.6	54.4	1.14
110868.5	54.4	1.14
110872.5	54.0	1.13
110876.5	54.0	1.13
110880.5	54.7	1.15
110884.5	55.0	1.16
110888.5	55.0	1.16
110892.5	55.4	1.16
110896.5	55.8	1.17
110900.5	56.2	1.18
110904.5	56.9	1.19
110908.5	57.6	1.21
110912.5	57.7	1.21
110916.5	57.8	1.21
110920.5	58.6	1.23
110924.5	58.2	1.22
110928.5	55.5	1.16
110932.5	53.4	1.12
110936.5	53.0	1.11
110940.5	53.5	1.12
110944.5	54.0	1.13
110948.5	54.5	1.15
110952.5	55.2	1.16
110956.5	56.5	1.19
110960.5	57.6	1.21
110964.5	58.9	1.24
110968.5	60.6	1.27
110972.5	60.5	1.27
110976.5	57.4	1.21
110980.5	54.0	1.13
110984.5	52.3	1.10
110988.5	51.3	1.08
110992.5	50.3	1.06
110996.5	50.4	1.06
111000.5	52.7	1.11
111004.5	56.3	1.18
111008.5	57.3	1.20
111012.5	56.5	1.19
111016.5	56.0	1.18
111020.5	55.9	1.17
111024.5	55.9	1.17
111028.5	56.4	1.19
111032.5	57.4	1.21
111036.5	59.2	1.24
111040.5	61.0	1.28
111044.5	61.3	1.29
111048.5	60.8	1.28
111052.5	61.2	1.29
111056.5	61.3	1.29
111060.5	61.0	1.28
111064.5	61.0	1.28
111068.5	62.0	1.30
111072.5	62.3	1.31
111076.5	61.0	1.28
111080.5	58.9	1.24
111084.5	57.5	1.21
111088.5	56.9	1.19
111092.5	57.0	1.20
111096.5	57.0	1.20
111100.5	56.8	1.19
111104.5	55.9	1.17
111108.5	55.0	1.16
111112.5	54.4	1.14
111116.5	53.7	1.13
111120.5	53.2	1.12
111124.5	53.0	1.11
111128.5	53.2	1.12
111132.5	53.8	1.13
111136.5	53.6	1.13
111140.5	52.8	1.11
111144.5	51.9	1.09
111148.5	51.5	1.08
111152.5	51.8	1.09
111156.5	52.5	1.10
111160.5	53.0	1.11
111164.5	53.2	1.12
111168.5	52.7	1.11
111172.5	52.5	1.10
111176.5	53.2	1.12
111180.5	53.6	1.13
111184.5	52.2	1.10
111188.5	50.1	1.05
111192.5	49.2	1.03
111196.5	49.2	1.03
111200.5	50.5	1.06
111204.5	52.8	1.11
111208.5	54.0	1.13
111212.5	53.9	1.13
111216.5	53.3	1.12
111220.5	53.1	1.11
111224.5	53.0	1.11
111228.5	53.0	1.11
111232.5	51.8	1.09
111236.5	48.7	1.02
111240.5	46.8	1.00
111244.5	47.4	1.00
111248.5	48.1	1.01
111252.5	49.0	1.03
111256.5	49.8	1.05
111260.5	49.3	1.04
111264.5	48.2	1.01
111268.5	48.3	1.02
111272.5	48.7	1.02
111276.5	48.8	1.02
111280.5	48.8	1.02
111284.5	48.9	1.03
111288.5	48.9	1.03
111292.5	48.9	1.03
111296.5	48.8	1.02
111300.5	48.6	1.02
111304.5	48.4	1.02
111308.5	48.3	1.01
111312.5	48.0	1.01
111316.5	47.7	1.00
111320.5	47.7	1.00
111324.5	47.8	1.00
111328.5	47.8	1.00
111332.5	48.1	1.01
111336.5	48.4	1.02
111340.5	49.3	1.04
111344.5	50.3	1.06
111348.5	50.5	1.06
111352.5	50.3	1.06
111356.5	50.0	1.05
111360.5	49.8	1.05
111364.5	49.9	1.05
111368.5	50.0	1.05
111372.5	50.4	1.06
111376.5	51.3	1.08
111380.5	53.0	1.11
111384.5	54.4	1.14
111388.5	55.1	1.16
111392.5	55.5	1.16
111396.5	54.8	1.15
111400.5	53.7	1.13
111404.4	53.7	1.13
111408.4	53.5	1.12
111412.4	53.6	1.13
111416.4	54.2	1.14
111420.5	54.6	1.15
111424.5	54.4	1.14
111428.5	54.1	1.14
111432.5	53.7	1.13
111436.4	53.5	1.12
111440.5	53.3	1.12
111444.5	53.3	1.12
111448.5	53.3	1.12
111452.5	53.3	1.12
111456.5	53.6	1.13
111460.5	54.0	1.13
111464.4	54.2	1.14
111468.4	54.3	1.14
111472.4	54.2	1.14
111476.4	54.4	1.14
111480.4	54.6	1.15
111484.4	54.8	1.15
111488.4	54.9	1.15
111492.4	55.0	1.16
111496.4	55.2	1.16
111500.4	55.5	1.16
111504.4	55.0	1.15
111508.4	54.4	1.14
111512.4	53.9	1.13
111516.4	53.3	1.12
111520.4	52.9	1.11
111524.5	52.7	1.11
111528.4	52.5	1.10
111532.4	52.6	1.11
111536.4	52.8	1.11
111540.4	53.0	1.11
111544.4	53.5	1.12
111548.4	53.9	1.13
111552.4	54.1	1.14
111556.4	54.4	1.14
111560.4	54.4	1.14
111564.4	54.3	1.14
111568.4	53.8	1.13
111572.4	53.6	1.13
111576.4	53.5	1.12
111580.4	53.4	1.12
111584.4	52.7	1.11
111588.4	51.9	1.09
111592.4	51.9	1.09
111596.4	52.6	1.10
111600.4	52.9	1.11
111604.4	53.0	1.11
111608.4	52.9	1.11
111612.4	52.8	1.11
111616.4	53.0	1.11
111620.4	53.3	1.12
111624.4	53.0	1.11
111628.4	52.5	1.10
111632.4	52.1	1.09
111636.4	51.9	1.09
111640.4	52.0	1.09
111644.4	52.6	1.10
111648.4	52.8	1.11
111652.4	52.3	1.10
111656.4	52.0	1.09
111660.4	52.3	1.10
111664.4	52.5	1.10
111668.4	53.2	1.12
111672.4	53.5	1.12
111676.4	53.2	1.12
111680.4	53.1	1.11
111684.4	53.1	1.12
111688.4	52.7	1.11
111692.4	52.4	1.10
111696.4	52.6	1.10
111700.4	52.9	1.11
111704.4	52.8	1.11
111708.4	52.3	1.10
111712.4	52.0	1.09
111716.4	52.2	1.10
111720.4	52.5	1.10
111724.4	53.1	1.12
111728.4	53.4	1.12
111732.4	53.4	1.12
111736.4	53.2	1.12
111740.4	53.3	1.12
111744.4	53.3	1.12
111748.4	53.2	1.12
111752.4	53.0	1.11
111756.4	52.8	1.11
111760.4	52.5	1.10
111764.4	52.2	1.10
111768.4	51.7	1.09
111772.4	51.1	1.07
111776.4	49.9	1.05
111780.4	48.9	1.03
111784.4	48.4	1.02
111788.4	48.1	1.01
111792.4	47.7	1.00
111796.4	47.5	1.00
111800.4	47.2	1.00
111804.4	46.8	1.00
111808.4	46.6	1.00
111812.4	46.4	1.00
111816.4	46.1	1.00
111820.4	45.7	1.00
111824.4	45.2	1.00
111828.4	45.0	1.00
111832.4	45.1	1.00
111836.4	45.6	1.00
111840.4	45.7	1.00
111844.4	45.2	1.00
111848.4	45.1	1.00
111852.4	45.3	1.00
111856.4	45.8	1.00
111860.4	46.7	1.00
111864.4	46.9	1.00
111868.4	46.5	1.00
111872.4	46.1	1.00
111876.4	46.1	1.00
111880.4	45.8	1.00
111884.4	45.2	1.00
111888.4	45.5	1.00
111892.4	46.7	1.00
111896.4	47.0	1.00
111900.4	46.8	1.00
111904.4	46.7	1.00
111908.4	46.1	1.00
111912.4	45.4	1.00
111916.4	45.6	1.00
111920.4	45.6	1.00
111924.4	45.1	1.00
111928.4	44.7	1.00
111932.4	44.9	1.00
111936.4	45.3	1.00
111940.4	45.7	1.00
111944.4	46.2	1.00
111948.4	46.6	1.00
111952.4	46.6	1.00
111956.4	46.5	1.00
111960.4	46.4	1.00
111964.4	46.2	1.00
111968.4	46.2	1.00
111972.4	46.3	1.00
111976.4	46.3	1.00
111980.4	46.3	1.00
111984.4	46.2	1.00
111988.4	46.1	1.00
111992.4	46.1	1.00
111996.4	46.1	1.00
112000.4	45.9	1.00
112004.4	45.8	1.00
112008.4	45.8	1.00
112012.4	45.8	1.00
112016.4	45.8	1.00
112020.4	45.8	1.00
112024.4	45.8	1.00
112028.4	45.9	1.00
112032.3	46.0	1.00
112036.3	46.1	1.00
112040.4	46.0	1.00
112044.4	46.0	1.00
112048.3	46.0	1.00
112052.4	46.1	1.00
112056.4	46.0	1.00
112060.4	46.0	1.00
112064.4	46.0	1.00
112068.3	46.0	1.00
112072.4	45.8	1.00
112076.3	45.7	1.00
112080.3	45.6	1.00
112084.3	45.5	1.00
112088.3	45.3	1.00
112092.3	45.3	1.00
112096.3	45.4	1.00
112100.3	45.5	1.00
112104.3	45.6	1.00
112108.3	45.7	1.00
112112.3	45.7	1.00
112116.3	45.6	1.00
112120.3	45.8	1.00
112124.3	46.0	1.00
112128.3	46.0	1.00
112132.3	45.9	1.00
112136.3	45.9	1.00
112140.3	46.0	1.00
112144.3	46.0	1.00
112148.3	46.0	1.00
112152.3	46.0	1.00
112156.3	45.9	1.00
112160.3	45.9	1.00
112164.3	45.8	1.00
112168.3	45.7	1.00
112172.3	45.9	1.00
112176.3	46.0	1.00
112180.3	45.9	1.00
112184.3	45.9	1.00
112188.3	46.0	1.00
112192.3	45.9	1.00
112196.3	45.9	1.00
112200.3	45.8	1.00
112204.3	45.7	1.00
112208.3	44.8	1.00
112212.3	43.8	1.00
112216.3	44.3	1.00
112220.3	45.1	1.00
112224.3	45.2	1.00
112228.3	45.1	1.00
112232.3	45.1	1.00
112236.3	45.1	1.00
112240.3	44.9	1.00
112244.3	44.5	1.00
112248.3	44.2	1.00
112252.3	44.2	1.00
112256.3	44.0	1.00
112260.3	43.9	1.00
112264.3	44.2	1.00
112268.3	44.5	1.00
112272.3	44.6	1.00
112276.3	44.8	1.00
112280.3	44.8	1.00
112284.3	44.4	1.00
112288.3	44.2	1.00
112292.3	44.1	1.00
112296.3	44.1	1.00
112300.3	44.0	1.00
112304.3	43.6	1.00
112308.3	43.4	1.00
112312.3	43.6	1.00
112316.3	43.7	1.00
112320.3	44.2	1.00
112324.3	45.0	1.00
112328.3	45.4	1.00
112332.3	45.7	1.00
112336.3	45.7	1.00
112340.3	45.6	1.00
112344.3	45.7	1.00
112348.3	45.7	1.00
112352.3	45.6	1.00
112356.3	45.4	1.00
112360.3	45.5	1.00
