39 1001
F. Obersteiner; A. Zahn; florian.obersteiner@kit.edu
Institute of Meteorology and Climate Research (IMK), Karlsruhe Institute of Technology (KIT), 76021 Karlsruhe, P.O. Box 3640, Germany
1 | HALO | FAIRO | Ozone measured with the dual-beam UV-photometer from the FAIRO instrument onboard of the HALO research aircraft
HALO campaign PHILEAS; University of Mainz, Mainz, Germany
1 1
2023 08 21 2024 05 03
0
Mid_UTC; time; [s] # seconds after midnight on the experiment date
2
1 1
-9999 -9999
O3; mole_fraction_of_ozone_in_air; [ppb]
O3_unc; standard_error_of_mole_fraction_of_ozone_in_air; [ppb]
9
Flight: Frankfurt
Platform: HALO
Instrument: FAIRO-1
FileName: PHILEAS_F07b_2023-08-21_HALO_FAIRO_O3_V02.ames
FAIROmeta_version: 0.1.8, https://gitlab.kit.edu/FObersteiner/FAIROmeta, DOI: 10.5281/zenodo.11104076
FAIROpro_version: 0.4.1, https://gitlab.kit.edu/FObersteiner/FAIROpro, DOI: 10.5281/zenodo.11104018
FAIROpro_cfgfile: 2023-08-21_F07b_Frankfurt_FAIROpro.toml
Exceptions To Consider: No
ChangeLog: V01 - initial release, preliminary data. V02 - revised, final data.
14
Ozone mixing ratio calculation:
UV photometer -> ozone absorption cross section and temperature dependence taken from Barnes & Mauersberger 1987, DOI: 10.1029/JD092iD12p14861.
Chemiluminescence detector -> sensitivity derived from UV photometer data.
Independent variable:
UV photometer timestamp denotes the mid of the sampling interval (2 seconds).
Chemiluminescence detector timestamp denotes the end of the sampling interval (1/12.5 seconds).
Instrument time is synchronized to the IWG1 string timestamp on the aircraft LAN unless noted otherwise (see SCOM, 'Exceptions To Consider').
Sample lag time from inlet to detector is not taken into account.
Detection limits and measurement uncertainty:
Approximate detection limits: LLOD 3 ppb, ULOD 5000 ppb. Use 3x LLOD for the limit of quantification (9 ppb).
Uncertainty is estimated to be at least 1 ppb OR 2.1% for the UV photometer and 2.6% combined for the chemiluminescence detector. Use whatever value is larger.
time	mole_fraction_of_ozone_in_air	standard_error_of_mole_fraction_of_ozone_in_air
1	1e-9	1e-9
Mid_UTC	O3	O3_unc
50561.9	45.2	1.00
50565.9	44.8	1.00
50569.9	44.5	1.00
50573.9	44.4	1.00
50577.9	44.2	1.00
50581.9	43.9	1.00
50585.9	43.6	1.00
50589.9	43.2	1.00
50593.9	43.2	1.00
50597.9	43.2	1.00
50601.9	43.2	1.00
50605.9	43.3	1.00
50609.9	43.6	1.00
50613.9	44.0	1.00
50617.9	44.7	1.00
50621.9	45.4	1.00
50625.9	45.7	1.00
50629.9	45.1	1.00
50633.9	44.4	1.00
50637.9	43.8	1.00
50641.9	43.5	1.00
50645.9	43.5	1.00
50649.9	44.0	1.00
50653.9	45.0	1.00
50657.9	45.4	1.00
50661.9	44.7	1.00
50665.9	47.4	1.00
50669.9	55.3	1.16
50673.9	60.2	1.26
50677.9	59.8	1.26
50681.9	59.2	1.24
50685.9	58.4	1.23
50689.9	57.6	1.21
50693.9	58.1	1.22
50697.9	60.1	1.26
50701.9	61.4	1.29
50705.9	61.5	1.29
50709.9	62.0	1.30
50713.9	62.6	1.31
50717.9	62.8	1.32
50721.9	63.6	1.34
50725.9	65.0	1.36
50729.9	66.0	1.39
50733.9	65.7	1.38
50737.9	65.2	1.37
50741.9	65.2	1.37
50745.9	66.1	1.39
50749.9	66.7	1.40
50753.9	66.4	1.39
50757.9	64.3	1.35
50761.9	61.1	1.28
50765.9	57.9	1.22
50769.9	53.8	1.13
50773.9	47.5	1.00
50777.9	42.4	1.00
50781.9	40.7	1.00
50785.9	40.7	1.00
50789.9	41.0	1.00
50793.9	41.9	1.00
50797.9	42.8	1.00
50801.9	44.0	1.00
50805.9	44.9	1.00
50809.9	43.4	1.00
50813.9	40.9	1.00
50817.9	42.8	1.00
50821.9	51.7	1.09
50825.9	60.8	1.28
50829.9	62.8	1.32
50833.9	63.0	1.32
50837.9	64.3	1.35
50841.9	64.7	1.36
50845.9	64.4	1.35
50849.9	64.4	1.35
50853.9	64.7	1.36
50857.9	64.7	1.36
50861.9	64.3	1.35
50865.9	63.5	1.33
50869.9	62.9	1.32
50873.9	64.1	1.35
50877.9	63.9	1.34
50881.9	59.9	1.26
50885.9	56.7	1.19
50889.9	57.6	1.21
50893.9	59.8	1.26
50897.9	60.7	1.28
50901.9	60.7	1.27
50905.9	60.7	1.27
50909.9	61.1	1.28
50913.9	61.7	1.30
50917.9	62.1	1.30
50921.9	62.3	1.31
50925.9	62.3	1.31
50929.9	61.8	1.30
50933.9	60.8	1.28
50937.9	60.9	1.28
50941.9	61.9	1.30
50945.9	61.6	1.29
50949.9	60.8	1.28
50953.9	60.6	1.27
50957.9	59.7	1.25
50961.9	58.5	1.23
50965.9	58.0	1.22
50969.9	58.0	1.22
50973.9	59.3	1.24
50977.9	61.6	1.29
50981.9	62.3	1.31
50985.9	61.6	1.29
50989.9	60.4	1.27
50993.9	59.5	1.25
50997.9	58.9	1.24
51001.9	58.4	1.23
51005.9	58.7	1.23
51009.9	59.4	1.25
51013.9	59.2	1.24
51017.9	59.3	1.25
51021.9	59.5	1.25
51025.9	59.5	1.25
51029.9	59.1	1.24
51033.9	58.1	1.22
51037.9	57.6	1.21
51041.9	57.7	1.21
51045.9	57.7	1.21
51049.8	57.6	1.21
51053.8	57.2	1.20
51057.8	56.9	1.19
51061.8	56.5	1.19
51065.8	56.4	1.19
51069.8	56.5	1.19
51073.8	56.7	1.19
51077.8	56.7	1.19
51081.8	56.5	1.19
51085.8	56.0	1.18
51089.8	55.8	1.17
51093.8	55.5	1.16
51097.8	54.7	1.15
51101.8	54.1	1.14
51105.8	53.0	1.11
51109.8	50.3	1.06
51113.8	47.6	1.00
51117.8	47.4	1.00
51121.8	48.1	1.01
51125.8	46.9	1.00
51129.8	46.3	1.00
51133.8	48.1	1.01
51137.8	51.3	1.08
51141.8	53.6	1.13
51145.8	55.2	1.16
51149.8	56.5	1.19
51153.8	57.1	1.20
51157.8	57.8	1.21
51161.8	58.4	1.23
51165.8	58.1	1.22
51169.8	57.3	1.20
51173.8	55.5	1.16
51177.8	53.9	1.13
51181.8	52.9	1.11
51185.8	52.1	1.09
51189.8	51.7	1.09
51193.8	52.3	1.10
51197.8	53.1	1.11
51201.8	53.7	1.13
51205.8	54.2	1.14
51209.8	54.4	1.14
51213.8	54.1	1.14
51217.8	54.0	1.13
51221.8	55.2	1.16
51225.8	55.9	1.17
51229.8	55.8	1.17
51233.8	59.1	1.24
51237.8	64.5	1.35
51241.8	67.2	1.41
51245.8	67.7	1.42
51249.8	68.2	1.43
51253.8	68.6	1.44
51257.8	68.7	1.44
51261.8	68.5	1.44
51265.8	68.8	1.44
51269.8	69.5	1.46
51273.8	70.7	1.48
51277.8	75.0	1.58
51281.8	80.3	1.69
51285.8	82.9	1.74
51289.8	86.0	1.81
51293.8	90.5	1.90
51297.8	95.0	1.99
51301.8	98.3	2.06
51305.8	100.2	2.10
51309.8	101.1	2.12
51313.8	102.5	2.15
51317.8	104.9	2.20
51321.8	105.8	2.22
51325.8	103.9	2.18
51329.8	102.6	2.15
51333.8	101.9	2.14
51337.8	99.9	2.10
51341.8	98.0	2.06
51345.8	96.7	2.03
51349.8	95.7	2.01
51353.8	96.3	2.02
51357.8	96.6	2.03
51361.8	97.3	2.04
51365.8	100.9	2.12
51369.8	104.7	2.20
51373.8	107.6	2.26
51377.8	110.6	2.32
51381.8	110.8	2.33
51385.8	113.2	2.38
51389.8	122.4	2.57
51393.8	132.4	2.78
51397.8	137.4	2.89
51401.8	138.2	2.90
51405.8	138.0	2.90
51409.8	138.1	2.90
51413.8	137.7	2.89
51417.8	137.2	2.88
51421.8	134.1	2.82
51425.8	130.2	2.73
51429.8	130.7	2.74
51433.8	133.6	2.81
51437.8	134.6	2.83
51441.8	134.3	2.82
51445.8	134.1	2.82
51449.8	139.0	2.92
51453.8	150.6	3.16
51457.8	159.5	3.35
51461.8	160.9	3.38
51465.8	159.9	3.36
51469.8	157.5	3.31
51473.8	153.7	3.23
51477.8	151.7	3.19
51481.8	152.1	3.19
51485.8	153.2	3.22
51489.8	154.1	3.24
51493.8	154.4	3.24
51497.8	154.9	3.25
51501.8	156.5	3.29
51505.8	159.2	3.34
51509.8	162.2	3.41
51513.8	165.7	3.48
51517.8	168.3	3.53
51521.8	171.7	3.60
51525.8	177.0	3.72
51529.8	182.3	3.83
51533.8	187.2	3.93
51537.8	190.7	4.00
51541.8	191.4	4.02
51545.8	193.3	4.06
51549.8	196.3	4.12
51553.8	199.3	4.18
51557.8	202.1	4.24
51561.8	203.6	4.28
51565.8	204.8	4.30
51569.8	208.5	4.38
51573.8	214.4	4.50
51577.8	224.7	4.72
51581.8	237.3	4.98
51585.8	246.8	5.18
51589.8	253.8	5.33
51593.8	261.0	5.48
51597.8	267.5	5.62
51601.8	275.5	5.79
51605.8	295.3	6.20
51609.8	323.4	6.79
51613.8	339.8	7.14
51617.8	344.5	7.23
51621.8	350.9	7.37
51625.8	361.6	7.59
51629.8	370.2	7.77
51633.8	374.7	7.87
51637.8	376.3	7.90
51641.8	377.1	7.92
51645.8	377.5	7.93
51649.8	377.7	7.93
51653.8	376.7	7.91
51657.7	374.2	7.86
51661.8	371.4	7.80
51665.8	371.3	7.80
51669.7	372.4	7.82
51673.7	372.2	7.82
51677.7	371.7	7.81
51681.7	374.3	7.86
51685.7	379.6	7.97
51689.7	386.8	8.12
51693.7	392.4	8.24
51697.8	395.6	8.31
51701.8	397.5	8.35
51705.8	399.1	8.38
51709.8	399.7	8.39
51713.7	400.3	8.41
51717.8	400.6	8.41
51721.7	400.9	8.42
51725.7	400.8	8.42
51729.7	400.6	8.41
51733.7	399.3	8.39
51737.7	398.1	8.36
51741.7	396.1	8.32
51745.7	394.6	8.29
51749.7	393.2	8.26
51753.7	393.2	8.26
51757.7	393.0	8.25
51761.7	393.4	8.26
51765.7	393.8	8.27
51769.7	394.7	8.29
51773.7	395.1	8.30
51777.7	395.1	8.30
51781.7	395.0	8.30
51785.7	395.6	8.31
51789.7	395.9	8.31
51793.7	396.5	8.33
51797.7	396.8	8.33
51801.7	396.7	8.33
51805.7	396.8	8.33
51809.7	398.5	8.37
51813.7	401.1	8.42
51817.7	402.8	8.46
51821.7	403.8	8.48
51825.7	406.5	8.54
51829.7	409.4	8.60
51833.7	411.3	8.64
51837.7	412.7	8.67
51841.7	414.8	8.71
51845.7	416.3	8.74
51849.7	417.9	8.78
51853.7	418.9	8.80
51857.7	419.7	8.81
51861.7	419.0	8.80
51865.7	418.7	8.79
51869.7	419.2	8.80
51873.7	419.6	8.81
51877.7	419.5	8.81
51881.7	419.9	8.82
51885.7	420.7	8.83
51889.7	422.7	8.88
51893.7	423.8	8.90
51897.7	424.2	8.91
51901.7	425.0	8.92
51905.7	426.4	8.95
51909.7	427.1	8.97
51913.7	427.5	8.98
51917.7	427.1	8.97
51921.7	427.2	8.97
51925.7	427.4	8.98
51929.7	427.8	8.98
51933.7	427.2	8.97
51937.7	427.4	8.98
51941.7	426.8	8.96
51945.7	427.2	8.97
51949.7	427.1	8.97
51953.7	427.2	8.97
51957.7	426.7	8.96
51961.7	426.1	8.95
51965.7	424.8	8.92
51969.7	423.5	8.89
51973.7	422.0	8.86
51977.7	422.7	8.88
51981.7	424.5	8.91
51985.7	425.5	8.94
51989.7	427.1	8.97
51993.7	431.5	9.06
51997.7	435.3	9.14
52001.7	437.0	9.18
52005.7	437.0	9.18
52009.7	436.2	9.16
52013.7	435.1	9.14
52017.7	434.6	9.13
52021.7	433.2	9.10
52025.7	432.0	9.07
52029.7	431.6	9.06
52033.7	431.9	9.07
52037.7	432.6	9.08
52041.7	434.7	9.13
52045.7	438.1	9.20
52049.7	441.5	9.27
52053.7	442.8	9.30
52057.7	442.6	9.29
52061.7	442.6	9.30
52065.7	444.6	9.34
52069.7	446.5	9.38
52073.7	447.5	9.40
52077.7	447.9	9.41
52081.7	450.1	9.45
52085.7	452.1	9.49
52089.7	452.7	9.51
52093.7	452.7	9.51
52097.7	454.2	9.54
52101.7	456.2	9.58
52105.7	457.6	9.61
52109.7	458.0	9.62
52113.7	458.3	9.62
52117.7	457.5	9.61
52121.7	455.8	9.57
52125.7	453.2	9.52
52129.7	449.5	9.44
52133.7	446.9	9.38
52137.7	446.3	9.37
52141.7	440.9	9.26
52145.7	431.9	9.07
52149.7	427.2	8.97
52153.7	428.5	9.00
52157.7	432.4	9.08
52161.7	438.4	9.21
52165.7	443.1	9.31
52169.7	444.6	9.34
52173.7	444.2	9.33
52177.7	444.3	9.33
52181.7	444.5	9.33
52185.7	444.3	9.33
52189.7	442.0	9.28
52193.7	439.1	9.22
52197.7	436.3	9.16
52201.7	432.2	9.08
52205.7	426.0	8.95
52209.7	422.1	8.86
52213.7	419.5	8.81
52217.7	415.8	8.73
52221.7	412.5	8.66
52225.7	411.4	8.64
52229.7	408.8	8.59
52233.7	407.1	8.55
52237.7	408.0	8.57
52241.7	410.5	8.62
52245.7	413.0	8.67
52249.7	416.5	8.75
52253.7	419.8	8.82
52257.7	422.4	8.87
52261.7	424.1	8.91
52265.7	425.4	8.93
52269.7	425.6	8.94
52273.6	424.6	8.92
52277.6	422.1	8.86
52281.7	419.6	8.81
52285.6	417.6	8.77
52289.6	415.5	8.72
52293.6	412.5	8.66
52297.7	410.6	8.62
52301.7	409.3	8.60
52305.7	409.0	8.59
52309.7	409.0	8.59
52313.7	409.3	8.60
52317.7	410.1	8.61
52321.7	411.2	8.64
52325.7	412.0	8.65
52329.7	414.3	8.70
52333.7	416.8	8.75
52337.7	415.8	8.73
52341.7	410.8	8.63
52345.7	408.4	8.58
52349.6	411.7	8.64
52353.7	419.5	8.81
52357.6	427.5	8.98
52361.6	431.3	9.06
52365.6	430.9	9.05
52369.6	433.0	9.09
52373.6	438.5	9.21
52377.6	441.8	9.28
52381.6	441.1	9.26
52385.6	439.8	9.24
52389.6	435.5	9.15
52393.7	432.1	9.07
52397.6	435.4	9.14
52401.6	441.8	9.28
52405.6	444.2	9.33
52409.6	443.6	9.32
52413.6	433.4	9.10
52417.6	405.6	8.52
52421.6	377.3	7.92
52425.6	373.9	7.85
52429.6	377.1	7.92
52433.6	369.1	7.75
52437.6	361.7	7.60
52441.6	365.6	7.68
52445.6	371.9	7.81
52449.6	370.1	7.77
52453.6	364.6	7.66
52457.6	362.4	7.61
52461.6	362.0	7.60
52465.6	363.2	7.63
52469.6	364.4	7.65
52473.6	365.6	7.68
52477.6	366.0	7.69
52481.6	366.9	7.71
52485.6	369.2	7.75
52489.6	372.3	7.82
52493.6	375.3	7.88
52497.6	375.9	7.89
52501.6	373.2	7.84
52505.6	373.2	7.84
52509.6	374.8	7.87
52513.6	374.8	7.87
52517.6	374.5	7.86
52521.6	374.7	7.87
52525.6	373.1	7.84
52529.6	370.1	7.77
52533.6	367.4	7.72
52537.6	366.8	7.70
52541.6	366.0	7.69
52545.6	365.3	7.67
52549.6	365.0	7.67
52553.6	364.7	7.66
52557.6	364.0	7.64
52561.6	362.9	7.62
52565.6	362.6	7.62
52569.6	372.0	7.81
52573.6	386.8	8.12
52577.6	393.0	8.25
52581.6	391.1	8.21
52585.6	390.2	8.19
52589.6	392.2	8.24
52593.6	394.1	8.28
52597.6	393.9	8.27
52601.6	394.1	8.28
52605.6	393.8	8.27
52609.6	393.7	8.27
52613.6	393.8	8.27
52617.6	393.8	8.27
52621.6	394.0	8.27
52625.6	395.5	8.31
52629.6	396.6	8.33
52633.6	396.2	8.32
52637.6	395.4	8.30
52641.6	395.5	8.31
52645.6	396.2	8.32
52649.6	397.4	8.34
52653.6	398.2	8.36
52657.6	400.4	8.41
52661.6	404.3	8.49
52665.6	410.3	8.62
52669.6	414.4	8.70
52673.6	415.0	8.72
52677.6	417.2	8.76
52681.6	421.1	8.84
52685.6	422.0	8.86
52689.6	424.5	8.91
52693.6	429.0	9.01
52697.6	432.4	9.08
52701.6	433.8	9.11
52705.6	434.7	9.13
52709.6	435.9	9.15
52713.6	437.6	9.19
52717.6	435.6	9.15
52721.6	432.5	9.08
52725.6	432.2	9.08
52729.6	431.3	9.06
52733.6	427.5	8.98
52737.6	421.6	8.85
52741.6	414.1	8.70
52745.6	407.6	8.56
52749.6	401.2	8.42
52753.6	398.2	8.36
52757.6	399.5	8.39
52761.6	399.6	8.39
52765.6	395.0	8.30
52769.6	389.7	8.18
52773.6	385.3	8.09
52777.6	380.0	7.98
52781.6	374.6	7.87
52785.6	371.8	7.81
52789.6	369.4	7.76
52793.6	363.9	7.64
52797.6	356.7	7.49
52801.6	352.8	7.41
52805.6	351.5	7.38
52809.6	352.5	7.40
52813.6	354.1	7.44
52817.6	352.1	7.39
52821.6	347.5	7.30
52825.6	344.2	7.23
52829.6	341.4	7.17
52833.6	339.8	7.14
52837.6	339.5	7.13
52841.6	339.3	7.12
52845.6	340.2	7.14
52849.6	341.6	7.17
52853.6	340.3	7.15
52857.6	339.0	7.12
52861.6	337.6	7.09
52865.5	335.3	7.04
52869.6	329.7	6.92
52873.6	325.1	6.83
52877.6	325.2	6.83
52881.6	326.3	6.85
52885.6	327.3	6.87
52889.5	329.5	6.92
52893.5	331.8	6.97
52897.5	332.9	6.99
52901.5	333.4	7.00
52905.5	333.6	7.01
52909.5	331.8	6.97
52913.5	331.4	6.96
52917.5	334.0	7.01
52921.5	335.3	7.04
52925.5	335.5	7.04
52929.6	335.6	7.05
52933.5	336.2	7.06
52937.5	338.3	7.10
52941.5	339.6	7.13
52945.5	340.5	7.15
52949.5	342.7	7.20
52953.5	345.9	7.26
52957.5	346.8	7.28
52961.5	346.3	7.27
52965.5	346.4	7.27
52969.5	347.2	7.29
52973.5	347.9	7.31
52977.5	349.5	7.34
52981.5	350.5	7.36
52985.5	349.6	7.34
52989.5	347.2	7.29
52993.5	348.1	7.31
52997.5	352.2	7.40
53001.5	356.2	7.48
53005.5	355.1	7.46
53009.5	347.4	7.29
53013.5	339.3	7.12
53017.5	344.1	7.23
53021.5	354.1	7.44
53025.5	354.7	7.45
53029.5	350.7	7.36
53033.5	352.1	7.39
53037.5	354.0	7.43
53041.5	352.5	7.40
53045.5	351.9	7.39
53049.5	351.4	7.38
53053.5	349.9	7.35
53057.5	351.2	7.38
53061.5	353.8	7.43
53065.5	357.1	7.50
53069.5	360.3	7.57
53073.5	353.7	7.43
53077.5	330.0	6.93
53081.5	298.7	6.27
53085.5	277.4	5.82
53089.5	266.7	5.60
53093.5	251.9	5.29
53097.5	240.8	5.06
53101.5	231.7	4.86
53105.5	224.0	4.70
53109.5	227.4	4.78
53113.5	228.4	4.80
53117.5	218.8	4.59
53121.5	205.2	4.31
53125.5	192.3	4.04
53129.5	183.0	3.84
53133.5	175.5	3.69
53137.5	170.2	3.57
53141.5	172.6	3.62
53145.5	178.8	3.75
53149.5	180.2	3.78
53153.5	180.7	3.79
53157.5	185.5	3.89
53161.5	195.3	4.10
53165.5	204.9	4.30
53169.5	209.2	4.39
53173.5	206.0	4.33
53177.5	200.2	4.20
53181.5	205.0	4.30
53185.5	221.9	4.66
53189.5	226.1	4.75
53193.5	211.3	4.44
53197.5	201.0	4.22
53201.5	201.5	4.23
53205.5	195.5	4.11
53209.5	177.4	3.73
53213.5	164.6	3.46
53217.5	166.7	3.50
53221.5	169.9	3.57
53225.5	166.1	3.49
53229.5	162.8	3.42
53233.5	163.1	3.43
53237.5	163.9	3.44
53241.5	163.7	3.44
53245.5	161.4	3.39
53249.5	159.2	3.34
53253.5	158.6	3.33
53257.5	159.0	3.34
53261.5	159.1	3.34
53265.5	159.4	3.35
53269.5	159.4	3.35
53273.5	159.4	3.35
53277.5	159.7	3.35
53281.5	160.1	3.36
53285.5	161.6	3.39
53289.5	164.1	3.45
53293.5	164.9	3.46
53297.5	163.0	3.42
53301.5	162.0	3.40
53305.5	163.6	3.44
53309.5	164.0	3.44
53313.5	162.7	3.42
53317.5	161.9	3.40
53321.5	161.8	3.40
53325.5	162.5	3.41
53329.5	163.9	3.44
53333.5	164.8	3.46
53337.5	165.6	3.48
53341.5	166.5	3.50
53345.5	166.8	3.50
53349.5	165.8	3.48
53353.5	165.3	3.47
53357.5	165.9	3.48
53361.5	166.6	3.50
53365.5	167.4	3.52
53369.5	168.1	3.53
53373.5	167.6	3.52
53377.5	166.9	3.51
53381.5	166.8	3.50
53385.5	167.8	3.52
53389.5	168.2	3.53
53393.5	168.3	3.53
53397.5	169.5	3.56
53401.5	170.7	3.58
53405.5	170.9	3.59
53409.5	172.4	3.62
53413.5	174.1	3.66
53417.5	174.4	3.66
53421.5	172.1	3.62
53425.5	167.9	3.53
53429.5	166.1	3.49
53433.5	166.9	3.51
53437.5	167.1	3.51
53441.5	168.8	3.54
53445.5	173.5	3.64
53449.5	176.1	3.70
53453.5	173.3	3.64
53457.5	169.5	3.56
53461.5	167.4	3.52
53465.5	166.4	3.49
53469.5	166.4	3.49
53473.5	169.0	3.55
53477.5	172.0	3.61
53481.4	173.2	3.64
53485.5	173.0	3.63
53489.5	173.0	3.63
53493.5	173.6	3.64
53497.5	174.5	3.66
53501.5	175.1	3.68
53505.4	175.2	3.68
53509.4	174.7	3.67
53513.4	174.6	3.67
53517.4	174.5	3.66
53521.5	174.6	3.67
53525.4	174.8	3.67
53529.5	174.7	3.67
53533.4	173.1	3.64
53537.4	170.4	3.58
53541.4	168.9	3.55
53545.4	172.0	3.61
53549.4	178.8	3.75
53553.4	180.9	3.80
53557.4	175.5	3.69
53561.4	165.5	3.48
53565.4	152.1	3.19
53569.4	143.6	3.02
53573.4	142.7	3.00
53577.4	143.2	3.01
53581.4	141.6	2.97
53585.4	141.2	2.96
53589.4	144.1	3.03
53593.4	148.7	3.12
53597.4	150.9	3.17
53601.4	149.4	3.14
53605.4	151.9	3.19
53609.4	160.5	3.37
53613.4	161.8	3.40
53617.4	152.9	3.21
53621.4	146.7	3.08
53625.4	153.1	3.22
53629.4	166.4	3.50
53633.4	171.0	3.59
53637.4	165.1	3.47
53641.4	159.5	3.35
53645.4	155.2	3.26
53649.4	149.7	3.14
53653.4	146.9	3.08
53657.4	153.2	3.22
53661.4	163.7	3.44
53665.4	162.2	3.41
53669.4	147.6	3.10
53673.4	135.3	2.84
53677.4	130.1	2.73
53681.4	128.4	2.70
53685.4	128.2	2.69
53689.4	128.5	2.70
53693.4	128.4	2.70
53697.4	127.8	2.68
53701.4	127.2	2.67
53705.4	127.5	2.68
53709.4	128.5	2.70
53713.4	131.0	2.75
53717.4	134.5	2.82
53721.4	136.7	2.87
53725.4	137.0	2.88
53729.4	136.0	2.86
53733.4	133.6	2.80
53737.4	131.9	2.77
53741.4	132.7	2.79
53745.4	134.5	2.82
53749.4	136.1	2.86
53753.4	136.9	2.88
53757.4	135.4	2.84
53761.4	133.7	2.81
53765.4	132.7	2.79
53769.4	130.2	2.73
53773.4	128.1	2.69
53777.4	127.8	2.68
53781.4	127.7	2.68
53785.4	127.6	2.68
53789.4	127.5	2.68
53793.4	127.4	2.67
53797.4	127.1	2.67
53801.4	127.3	2.67
53805.4	127.6	2.68
53809.4	127.7	2.68
53813.4	127.7	2.68
53817.4	127.6	2.68
53821.4	127.7	2.68
53825.4	128.2	2.69
53829.4	128.2	2.69
53833.4	128.4	2.70
53837.4	128.4	2.70
53841.4	126.2	2.65
53845.4	123.6	2.59
53849.4	125.9	2.64
53853.4	129.5	2.72
53857.4	127.5	2.68
53861.4	121.9	2.56
53865.4	119.2	2.50
53869.4	120.5	2.53
53873.4	124.6	2.62
53877.4	127.0	2.67
53881.4	124.5	2.61
53885.4	120.8	2.54
53889.4	119.5	2.51
53893.4	119.2	2.50
53897.4	119.0	2.50
53901.4	118.8	2.50
53905.4	118.7	2.49
53909.4	118.6	2.49
53913.4	118.9	2.50
53917.4	119.6	2.51
53921.4	119.6	2.51
53925.4	120.1	2.52
53929.4	118.6	2.49
53933.4	116.7	2.45
53937.4	131.0	2.75
53941.4	157.1	3.30
53945.4	163.7	3.44
53949.4	143.9	3.02
53953.4	121.5	2.55
53957.4	109.0	2.29
53961.4	105.1	2.21
53965.4	105.2	2.21
53969.4	105.9	2.22
53973.4	111.5	2.34
53977.4	120.5	2.53
53981.4	124.5	2.61
53985.4	124.1	2.61
53989.4	123.7	2.60
53993.4	124.1	2.61
53997.4	124.5	2.61
54001.4	125.0	2.63
54005.4	124.4	2.61
54009.4	122.2	2.57
54013.4	121.1	2.54
54017.4	121.7	2.56
54021.4	121.0	2.54
54025.4	118.6	2.49
54029.4	115.9	2.43
54033.4	116.0	2.44
54037.4	118.5	2.49
54041.4	118.8	2.50
54045.4	118.4	2.49
54049.4	119.3	2.51
54053.4	120.5	2.53
54057.4	121.6	2.55
54061.4	121.7	2.56
54065.4	120.5	2.53
54069.4	120.1	2.52
54073.4	122.0	2.56
54077.4	123.1	2.58
54081.4	123.2	2.59
54085.4	123.7	2.60
54089.4	124.3	2.61
54093.4	124.9	2.62
54097.4	127.0	2.67
54101.4	130.9	2.75
54105.4	132.7	2.79
54109.4	130.9	2.75
54113.4	130.1	2.73
54117.4	132.5	2.78
54121.4	135.0	2.83
54125.3	136.2	2.86
54129.3	136.9	2.88
54133.4	137.1	2.88
54137.4	137.6	2.89
54141.3	138.1	2.90
54145.4	138.2	2.90
54149.3	138.0	2.90
54153.3	137.7	2.89
54157.4	137.0	2.88
54161.3	136.2	2.86
54165.4	135.2	2.84
54169.4	134.9	2.83
54173.4	134.9	2.83
54177.4	136.1	2.86
54181.4	137.7	2.89
54185.4	137.8	2.89
54189.3	137.2	2.88
54193.3	136.2	2.86
54197.3	135.0	2.83
54201.3	136.2	2.86
54205.3	138.6	2.91
54209.3	139.9	2.94
54213.3	139.9	2.94
54217.3	138.0	2.90
54221.3	134.3	2.82
54225.4	132.2	2.78
54229.3	131.9	2.77
54233.3	132.3	2.78
54237.3	132.9	2.79
54241.3	132.3	2.78
54245.3	130.0	2.73
54249.3	125.2	2.63
54253.3	117.8	2.47
54257.3	114.2	2.40
54261.3	117.7	2.47
54265.3	127.4	2.68
54269.3	133.8	2.81
54273.3	130.6	2.74
54277.3	126.1	2.65
54281.3	124.4	2.61
54285.3	122.9	2.58
54289.3	121.1	2.54
54293.3	119.1	2.50
54297.3	118.5	2.49
54301.3	119.2	2.50
54305.3	118.4	2.49
54309.4	117.0	2.46
54313.3	119.5	2.51
54317.3	123.6	2.60
54321.3	121.8	2.56
54325.3	116.9	2.45
54329.3	117.9	2.48
54333.3	121.7	2.56
54337.3	120.9	2.54
54341.3	115.6	2.43
54345.3	109.0	2.29
54349.3	104.5	2.19
54353.3	104.6	2.20
54357.3	107.9	2.27
54361.3	111.2	2.34
54365.3	110.7	2.33
54369.3	105.9	2.22
54373.3	99.5	2.09
54377.3	94.8	1.99
54381.3	94.6	1.99
54385.3	96.0	2.02
54389.3	95.1	2.00
54393.3	94.9	1.99
54397.3	95.0	1.99
54401.3	93.3	1.96
54405.3	96.8	2.03
54409.3	108.3	2.27
54413.3	116.1	2.44
54417.3	115.3	2.42
54421.3	111.4	2.34
54425.3	105.8	2.22
54429.3	101.5	2.13
54433.3	102.3	2.15
54437.3	103.9	2.18
54441.3	99.8	2.10
54445.3	92.7	1.95
54449.3	90.2	1.89
54453.3	91.8	1.93
54457.3	93.7	1.97
54461.3	94.4	1.98
54465.3	92.9	1.95
54469.3	92.4	1.94
54473.3	97.7	2.05
54477.3	105.5	2.22
54481.3	108.0	2.27
54485.3	105.9	2.22
54489.3	105.0	2.21
54493.3	106.9	2.24
54497.3	110.2	2.32
54501.3	115.9	2.43
54505.3	124.3	2.61
54509.3	127.8	2.68
54513.3	124.1	2.61
54517.3	119.8	2.52
54521.3	114.5	2.40
54525.3	107.9	2.27
54529.3	103.7	2.18
54533.3	101.8	2.14
54537.3	102.1	2.14
54541.3	102.1	2.14
54545.3	99.3	2.08
54549.3	95.8	2.01
54553.3	95.2	2.00
54557.3	96.0	2.02
54561.3	95.4	2.00
54565.3	94.2	1.98
54569.3	94.0	1.97
54573.3	93.8	1.97
54577.3	93.5	1.96
54581.3	93.4	1.96
54585.3	93.7	1.97
54589.3	95.0	1.99
54593.3	96.7	2.03
54597.3	97.6	2.05
54601.3	98.5	2.07
54605.3	100.6	2.11
54609.3	101.1	2.12
54613.3	97.6	2.05
54617.3	94.8	1.99
54621.3	95.6	2.01
54625.3	97.2	2.04
54629.3	96.0	2.02
54633.3	94.5	1.99
54637.3	93.1	1.95
54641.3	91.2	1.92
54645.3	91.3	1.92
54649.3	92.8	1.95
54653.3	94.7	1.99
54657.3	97.0	2.04
54661.3	97.6	2.05
54665.3	96.1	2.02
54669.3	95.3	2.00
54673.3	96.5	2.03
54677.3	98.7	2.07
54681.3	99.4	2.09
54685.3	98.1	2.06
54689.3	99.6	2.09
54693.3	103.1	2.17
54697.3	105.2	2.21
54701.3	105.4	2.21
54705.3	104.2	2.19
54709.3	103.0	2.16
54713.3	102.6	2.15
54717.3	104.7	2.20
54721.3	111.1	2.33
54725.3	116.4	2.44
54729.3	117.9	2.48
54733.3	118.4	2.49
54737.2	119.3	2.50
54741.2	122.0	2.56
54745.3	126.4	2.65
54749.2	130.2	2.73
54753.3	132.6	2.79
54757.2	133.7	2.81
54761.2	134.7	2.83
54765.2	136.6	2.87
54769.3	138.8	2.92
54773.3	140.4	2.95
54777.2	141.7	2.98
54781.2	142.5	2.99
54785.3	149.2	3.13
54789.3	158.9	3.34
54793.2	160.1	3.36
54797.3	163.6	3.44
54801.2	175.0	3.67
54805.2	181.9	3.82
54809.2	186.3	3.91
54813.2	192.0	4.03
54817.3	197.4	4.14
54821.3	200.8	4.22
54825.2	202.2	4.25
54829.2	201.9	4.24
54833.2	201.8	4.24
54837.2	202.3	4.25
54841.2	202.9	4.26
54845.2	202.8	4.26
54849.2	203.4	4.27
54853.3	204.2	4.29
54857.2	203.0	4.26
54861.2	201.3	4.23
54865.2	195.9	4.11
54869.2	179.5	3.77
54873.2	156.3	3.28
54877.2	137.5	2.89
54881.2	130.6	2.74
54885.2	130.2	2.73
54889.2	131.3	2.76
54893.3	136.7	2.87
54897.2	145.2	3.05
54901.2	145.8	3.06
54905.2	138.2	2.90
54909.2	133.0	2.79
54913.3	133.9	2.81
54917.2	140.6	2.95
54921.2	150.4	3.16
54925.2	163.7	3.44
54929.2	185.9	3.90
54933.2	200.3	4.21
54937.2	193.8	4.07
54941.2	185.9	3.90
54945.2	181.7	3.82
54949.2	177.7	3.73
54953.2	182.7	3.84
54957.2	191.1	4.01
54961.2	196.0	4.12
54965.2	195.0	4.09
54969.2	186.5	3.92
54973.2	179.0	3.76
54977.2	174.4	3.66
54981.2	167.1	3.51
54985.2	162.2	3.41
54989.2	165.6	3.48
54993.2	174.1	3.66
54997.2	181.1	3.80
55001.2	184.7	3.88
55005.2	186.4	3.91
55009.2	189.1	3.97
55013.2	194.7	4.09
55017.2	197.9	4.16
55021.2	193.7	4.07
55025.2	190.9	4.01
55029.2	191.4	4.02
55033.2	190.3	4.00
55037.2	188.5	3.96
55041.2	186.9	3.92
55045.2	185.7	3.90
55049.2	182.9	3.84
55053.2	177.1	3.72
55057.2	173.8	3.65
55061.2	174.2	3.66
55065.2	175.6	3.69
55069.2	176.3	3.70
55073.2	177.0	3.72
55077.2	178.9	3.76
55081.2	181.3	3.81
55085.2	183.3	3.85
55089.2	182.8	3.84
55093.2	179.5	3.77
55097.2	176.9	3.72
55101.2	175.2	3.68
55105.2	173.3	3.64
55109.2	171.5	3.60
55113.2	173.3	3.64
55117.2	176.5	3.71
55121.2	176.9	3.71
55125.2	177.8	3.73
55129.2	177.6	3.73
55133.2	174.9	3.67
55137.2	172.6	3.62
55141.2	171.8	3.61
55145.2	174.7	3.67
55149.2	177.4	3.73
55153.2	174.5	3.66
55157.2	169.6	3.56
55161.2	170.1	3.57
55165.2	174.3	3.66
55169.2	178.1	3.74
55173.2	178.8	3.75
55177.2	174.1	3.66
55181.2	164.3	3.45
55185.2	155.2	3.26
55189.2	146.7	3.08
55193.2	138.0	2.90
55197.2	135.4	2.84
55201.2	139.5	2.93
55205.2	146.3	3.07
55209.2	153.0	3.21
55213.2	156.4	3.29
55217.2	158.4	3.33
55221.2	157.7	3.31
55225.2	152.4	3.20
55229.2	150.6	3.16
55233.2	158.8	3.33
55237.2	167.6	3.52
55241.2	165.5	3.47
55245.2	159.1	3.34
55249.2	162.1	3.40
55253.2	169.2	3.55
55257.2	169.7	3.56
55261.2	167.8	3.52
55265.2	171.5	3.60
55269.2	172.1	3.61
55273.2	170.3	3.58
55277.2	175.5	3.68
55281.2	178.3	3.74
55285.2	172.2	3.62
55289.2	166.7	3.50
55293.2	168.1	3.53
55297.2	171.6	3.60
55301.2	172.7	3.63
55305.2	173.4	3.64
55309.2	171.3	3.60
55313.2	164.1	3.45
55317.2	158.4	3.33
55321.2	157.6	3.31
55325.2	155.8	3.27
55329.2	151.5	3.18
55333.2	149.7	3.14
55337.2	152.7	3.21
55341.2	157.7	3.31
55345.2	160.4	3.37
55349.2	160.0	3.36
55353.1	159.6	3.35
55357.1	158.8	3.34
55361.2	156.9	3.29
55365.2	150.5	3.16
55369.2	139.0	2.92
55373.2	127.4	2.68
55377.2	120.0	2.52
55381.2	116.0	2.44
55385.2	115.0	2.42
55389.1	116.7	2.45
55393.2	117.6	2.47
55397.1	116.4	2.44
55401.2	115.0	2.41
55405.2	113.5	2.38
55409.2	116.9	2.45
55413.1	125.9	2.64
55417.1	132.4	2.78
55421.2	134.5	2.82
55425.1	130.9	2.75
55429.2	124.4	2.61
55433.1	126.3	2.65
55437.1	126.9	2.66
55441.2	123.8	2.60
55445.2	129.5	2.72
55449.1	134.9	2.83
55453.1	132.0	2.77
55457.1	128.6	2.70
55461.2	129.8	2.73
55465.2	131.3	2.76
55469.1	131.0	2.75
55473.1	133.9	2.81
55477.1	141.1	2.96
55481.1	145.3	3.05
55485.1	138.8	2.91
55489.1	132.6	2.79
55493.1	134.3	2.82
55497.1	134.0	2.81
55501.1	130.5	2.74
55505.1	128.1	2.69
55509.1	123.0	2.58
55513.1	122.1	2.56
55517.2	128.2	2.69
55521.1	127.7	2.68
55525.2	123.8	2.60
55529.1	127.1	2.67
55533.1	133.6	2.80
55537.1	134.6	2.83
55541.2	128.1	2.69
55545.1	123.1	2.58
55549.2	123.6	2.60
55553.1	124.7	2.62
55557.2	126.5	2.66
55561.2	128.0	2.69
55565.2	123.7	2.60
55569.2	119.2	2.50
55573.1	117.1	2.46
55577.2	117.4	2.46
55581.1	120.2	2.52
55585.1	119.7	2.51
55589.1	118.3	2.48
55593.1	122.6	2.57
55597.1	125.9	2.64
55601.1	123.4	2.59
55605.1	122.8	2.58
55609.1	124.2	2.61
55613.1	120.4	2.53
55617.1	116.8	2.45
55621.1	117.1	2.46
55625.1	116.7	2.45
55629.1	115.7	2.43
55633.1	114.2	2.40
55637.1	110.5	2.32
55641.1	105.7	2.22
55645.1	104.7	2.20
55649.1	107.2	2.25
55653.1	106.6	2.24
55657.1	107.8	2.26
55661.2	110.7	2.33
55665.1	108.0	2.27
55669.1	105.7	2.22
55673.1	107.7	2.26
55677.1	110.5	2.32
55681.1	113.1	2.37
55685.1	115.5	2.42
55689.1	118.1	2.48
55693.1	124.3	2.61
55697.1	134.2	2.82
55701.1	138.9	2.92
55705.1	138.8	2.92
55709.1	140.6	2.95
55713.1	145.2	3.05
55717.1	147.4	3.10
55721.1	146.1	3.07
55725.1	146.4	3.07
55729.1	145.3	3.05
55733.1	143.0	3.00
55737.1	149.8	3.15
55741.1	158.2	3.32
55745.1	158.7	3.33
55749.1	158.9	3.34
55753.1	163.1	3.43
55757.1	164.8	3.46
55761.1	162.7	3.42
55765.1	160.7	3.37
55769.1	158.8	3.34
55773.1	156.4	3.28
55777.1	155.8	3.27
55781.1	156.1	3.28
55785.1	152.2	3.20
55789.1	147.1	3.09
55793.1	147.5	3.10
55797.1	151.6	3.18
55801.1	155.1	3.26
55805.1	156.6	3.29
55809.1	157.8	3.31
55813.1	157.5	3.31
55817.1	158.7	3.33
55821.1	163.3	3.43
55825.1	164.4	3.45
55829.1	162.7	3.42
55833.1	161.5	3.39
55837.1	159.9	3.36
55841.1	159.9	3.36
55845.1	161.7	3.40
55849.1	162.5	3.41
55853.1	157.8	3.31
55857.1	151.4	3.18
55861.1	151.5	3.18
55865.1	156.7	3.29
55869.1	160.7	3.38
55873.1	159.2	3.34
55877.1	152.5	3.20
55881.1	147.0	3.09
55885.1	146.2	3.07
55889.1	150.1	3.15
55893.1	156.1	3.28
55897.1	159.1	3.34
55901.1	159.3	3.34
55905.1	159.8	3.35
55909.1	158.8	3.33
55913.1	156.9	3.29
55917.1	156.6	3.29
55921.1	157.0	3.30
55925.1	156.9	3.29
55929.1	156.8	3.29
55933.1	157.6	3.31
55937.1	158.4	3.33
55941.1	157.7	3.31
55945.1	156.7	3.29
55949.1	156.1	3.28
55953.1	155.5	3.27
55957.1	155.1	3.26
55961.1	155.6	3.27
55965.1	155.9	3.27
55969.1	155.1	3.26
55973.1	153.2	3.22
55977.1	152.2	3.20
55981.1	153.3	3.22
55985.1	154.3	3.24
55989.1	154.1	3.24
55993.1	153.6	3.23
55997.1	152.9	3.21
56001.1	152.3	3.20
56005.1	151.4	3.18
56009.1	150.5	3.16
56013.1	149.7	3.14
56017.1	149.1	3.13
56021.1	149.2	3.13
56025.1	148.6	3.12
56029.1	147.8	3.10
56033.1	146.6	3.08
56037.1	144.5	3.04
56041.1	144.9	3.04
56045.1	146.7	3.08
56049.1	148.1	3.11
56053.1	148.9	3.13
56057.1	148.7	3.12
56061.1	145.8	3.06
56065.0	141.0	2.96
56069.0	139.3	2.92
56073.1	142.7	3.00
56077.1	147.2	3.09
56081.0	148.8	3.12
56085.1	148.5	3.12
56089.1	148.2	3.11
56093.1	148.2	3.11
56097.1	148.9	3.13
56101.1	149.0	3.13
56105.1	147.9	3.11
56109.1	146.4	3.07
56113.1	146.5	3.08
56117.1	147.2	3.09
56121.1	144.9	3.04
56125.1	140.8	2.96
56129.1	138.6	2.91
56133.0	138.0	2.90
56137.0	139.1	2.92
56141.0	140.8	2.96
56145.0	141.2	2.96
56149.0	140.4	2.95
56153.0	137.7	2.89
56157.0	130.8	2.75
56161.1	121.2	2.55
56165.0	113.5	2.38
56169.0	108.9	2.29
56173.0	105.0	2.20
56177.0	103.0	2.16
56181.0	104.0	2.18
56185.0	105.9	2.22
56189.1	107.1	2.25
56193.1	107.3	2.25
56197.1	106.4	2.23
56201.0	104.8	2.20
56205.0	103.9	2.18
56209.0	104.1	2.19
56213.0	104.3	2.19
56217.1	104.5	2.19
56221.0	104.7	2.20
56225.0	104.7	2.20
56229.0	104.7	2.20
56233.0	104.6	2.20
56237.0	103.0	2.16
56241.0	100.0	2.10
56245.0	97.9	2.06
56249.0	98.0	2.06
56253.0	99.3	2.08
56257.0	100.2	2.11
56261.0	100.8	2.12
56265.0	101.5	2.13
56269.0	102.2	2.15
56273.0	102.3	2.15
56277.0	101.9	2.14
56281.0	101.5	2.13
56285.0	100.8	2.12
56289.0	100.1	2.10
56293.0	99.5	2.09
56297.0	99.3	2.08
56301.0	99.2	2.08
56305.0	99.1	2.08
56309.0	99.1	2.08
56313.0	99.0	2.08
56317.0	98.1	2.06
56321.0	97.4	2.04
56325.0	97.2	2.04
56329.1	97.2	2.04
56333.0	97.1	2.04
56337.0	97.2	2.04
56341.0	97.2	2.04
56345.0	97.2	2.04
56349.0	97.2	2.04
56353.0	97.0	2.04
56357.0	96.3	2.02
56361.0	95.6	2.01
56365.0	95.4	2.00
56369.0	95.4	2.00
56373.0	95.5	2.00
56377.0	95.6	2.01
56381.0	95.3	2.00
56385.0	95.4	2.00
56389.0	95.9	2.01
56393.0	96.2	2.02
56397.0	96.4	2.02
56401.0	98.6	2.07
56405.0	102.6	2.15
56409.0	104.3	2.19
56413.0	101.6	2.13
56417.0	97.3	2.04
56421.0	95.3	2.00
56425.0	95.6	2.01
56429.0	95.7	2.01
56433.0	95.7	2.01
56437.0	97.1	2.04
56441.0	100.6	2.11
56445.0	104.3	2.19
56449.0	107.5	2.26
56453.0	109.6	2.30
56457.0	109.3	2.30
56461.0	109.0	2.29
56465.0	110.4	2.32
56469.0	111.9	2.35
56473.0	113.0	2.37
56477.0	113.6	2.39
56481.0	113.3	2.38
56485.0	112.2	2.36
56489.0	110.9	2.33
56493.0	108.9	2.29
56497.0	106.7	2.24
56501.0	105.5	2.21
56505.0	105.2	2.21
56509.0	105.2	2.21
56513.0	105.5	2.22
56517.0	105.8	2.22
56521.0	105.3	2.21
56525.0	104.0	2.18
56529.0	104.3	2.19
56533.0	106.4	2.23
56537.0	106.8	2.24
56541.0	104.7	2.20
56545.0	103.5	2.17
56549.0	103.5	2.17
56553.0	104.1	2.19
56557.0	107.8	2.26
56561.0	113.7	2.39
56565.0	115.5	2.43
56569.0	115.1	2.42
56573.0	115.5	2.43
56577.0	116.3	2.44
56581.0	117.1	2.46
56585.0	117.3	2.46
56589.0	117.8	2.47
56593.0	117.5	2.47
56597.0	114.9	2.41
56601.0	114.7	2.41
56605.0	118.5	2.49
56609.0	119.7	2.51
56613.0	117.4	2.47
56617.0	117.3	2.46
56621.0	118.2	2.48
56625.0	117.3	2.46
56629.0	115.7	2.43
56633.0	115.2	2.42
56637.0	115.2	2.42
56641.0	115.3	2.42
56645.0	115.5	2.43
56649.0	116.2	2.44
56653.0	117.0	2.46
56657.0	117.7	2.47
56661.0	118.3	2.48
56665.0	118.9	2.50
56669.0	119.1	2.50
56673.0	119.3	2.51
56677.0	122.0	2.56
56681.0	127.0	2.67
56685.0	130.0	2.73
56689.0	130.9	2.75
56692.9	130.3	2.74
56696.9	129.5	2.72
56701.0	131.1	2.75
56705.0	133.0	2.79
56709.0	133.4	2.80
56713.0	133.3	2.80
56717.0	133.2	2.80
56721.0	133.1	2.79
56724.9	132.6	2.78
56729.0	132.3	2.78
56732.9	132.0	2.77
56736.9	131.1	2.75
56740.9	129.8	2.73
56744.9	128.8	2.70
56748.9	129.9	2.73
56753.0	133.2	2.80
56756.9	135.6	2.85
56761.0	136.5	2.87
56765.0	137.1	2.88
56768.9	137.5	2.89
56772.9	137.2	2.88
56776.9	137.1	2.88
56781.0	137.0	2.88
56785.0	137.2	2.88
56788.9	137.2	2.88
56793.0	136.8	2.87
56797.0	136.0	2.86
56801.0	135.4	2.84
56804.9	134.7	2.83
56809.0	131.8	2.77
56813.0	129.7	2.72
56817.0	133.1	2.79
56821.0	135.8	2.85
56825.0	135.6	2.85
56828.9	135.3	2.84
56832.9	134.9	2.83
56837.0	133.3	2.80
56841.0	130.6	2.74
56844.9	128.3	2.69
56848.9	128.4	2.70
56853.0	129.1	2.71
56857.0	125.5	2.64
56861.0	116.8	2.45
56865.0	109.4	2.30
56869.0	107.0	2.25
56873.0	109.9	2.31
56877.0	118.1	2.48
56881.0	124.6	2.62
56885.0	120.8	2.54
56889.0	112.4	2.36
56893.0	109.1	2.29
56897.0	109.3	2.29
56901.0	108.4	2.28
56904.9	108.1	2.27
56909.0	108.7	2.28
56913.0	110.4	2.32
56917.0	116.6	2.45
56920.9	126.5	2.66
56925.0	132.1	2.77
56929.0	130.5	2.74
56932.9	123.3	2.59
56936.9	115.5	2.43
56940.9	113.0	2.37
56944.9	115.6	2.43
56949.0	116.0	2.44
56953.0	114.2	2.40
56956.9	115.6	2.43
56961.0	118.1	2.48
56965.0	119.3	2.50
56969.0	120.9	2.54
56973.0	121.8	2.56
56976.9	120.9	2.54
56980.9	120.1	2.52
56985.0	120.4	2.53
56989.0	120.3	2.53
56993.0	117.5	2.47
56996.9	118.2	2.48
57000.9	126.0	2.65
57004.9	130.7	2.75
57008.9	128.5	2.70
57013.0	126.4	2.66
57016.9	129.5	2.72
57020.9	133.2	2.80
57024.9	133.8	2.81
57028.9	133.2	2.80
57032.9	132.7	2.79
57036.9	132.3	2.78
57040.9	132.2	2.78
57044.9	132.1	2.77
57048.9	132.3	2.78
57053.0	132.2	2.78
57057.0	132.0	2.77
57060.9	131.9	2.77
57064.9	132.2	2.78
57068.9	132.2	2.78
57072.9	132.6	2.78
57076.9	132.7	2.79
57080.9	133.0	2.79
57084.9	133.9	2.81
57088.9	134.7	2.83
57092.9	134.2	2.82
57096.9	132.3	2.78
57100.9	130.3	2.74
57104.9	130.3	2.74
57108.9	131.4	2.76
57112.9	131.8	2.77
57116.9	131.5	2.76
57120.9	131.0	2.75
57124.9	130.2	2.73
57128.9	130.5	2.74
57132.9	132.7	2.79
57136.9	135.5	2.84
57140.9	137.0	2.88
57144.9	137.4	2.89
57148.9	136.9	2.88
57152.9	136.2	2.86
57156.9	135.6	2.85
57160.9	135.4	2.84
57164.9	135.3	2.84
57168.9	135.6	2.85
57172.9	136.0	2.86
57176.9	136.2	2.86
57180.9	135.9	2.85
57184.9	135.8	2.85
57188.9	135.8	2.85
57192.9	135.8	2.85
57196.9	135.4	2.84
57200.9	135.5	2.85
57204.9	135.6	2.85
57208.9	135.2	2.84
57212.8	134.8	2.83
57216.9	134.6	2.83
57220.9	134.2	2.82
57224.9	133.9	2.81
57228.9	133.7	2.81
57232.9	133.6	2.81
57236.9	133.4	2.80
57240.9	133.2	2.80
57244.9	132.2	2.78
57248.9	131.3	2.76
57252.8	130.6	2.74
57256.9	130.3	2.74
57260.9	130.6	2.74
57264.9	130.8	2.75
57268.9	130.4	2.74
57272.9	129.6	2.72
57276.9	128.9	2.71
57280.9	128.0	2.69
57284.8	126.7	2.66
57288.9	125.4	2.63
57292.9	123.9	2.60
57296.9	121.7	2.55
57300.9	118.7	2.49
57304.9	117.0	2.46
57308.9	117.2	2.46
57312.8	117.4	2.47
57316.9	117.2	2.46
57320.8	117.1	2.46
57324.9	116.1	2.44
57328.9	114.5	2.40
57332.9	113.3	2.38
57336.8	113.2	2.38
57340.8	111.6	2.34
57344.8	109.2	2.29
57348.8	108.7	2.28
57352.8	108.9	2.29
57356.8	109.1	2.29
57360.8	110.2	2.31
57364.8	110.5	2.32
57368.8	111.6	2.34
57372.8	113.2	2.38
57376.8	113.0	2.37
57380.8	112.3	2.36
57384.8	113.3	2.38
57388.8	115.2	2.42
57392.8	115.2	2.42
57396.8	112.7	2.37
57400.8	110.0	2.31
57404.8	108.3	2.28
57408.8	108.0	2.27
57412.8	108.1	2.27
57416.8	108.3	2.27
57420.9	108.7	2.28
57424.8	109.2	2.29
57428.8	109.1	2.29
57432.8	110.3	2.32
57436.9	112.1	2.35
57440.8	111.9	2.35
57444.8	110.5	2.32
57448.8	110.5	2.32
57452.8	110.4	2.32
57456.8	109.3	2.30
57460.8	108.6	2.28
57464.8	108.8	2.28
57468.8	108.8	2.28
57472.8	108.9	2.29
57476.8	109.2	2.29
57480.8	109.4	2.30
57484.8	109.4	2.30
57488.8	109.3	2.30
57492.8	109.7	2.30
57496.9	110.6	2.32
57500.8	112.0	2.35
57504.8	114.9	2.41
57508.8	117.4	2.47
57512.8	118.3	2.48
57516.8	117.5	2.47
57520.8	117.1	2.46
57524.8	116.5	2.45
57528.8	115.1	2.42
57532.8	113.8	2.39
57536.8	113.0	2.37
57540.8	112.1	2.35
57544.8	111.3	2.34
57548.8	110.6	2.32
57552.8	110.2	2.31
57556.8	111.6	2.34
57560.8	116.6	2.45
57564.8	120.9	2.54
57568.8	118.9	2.50
57572.8	113.5	2.38
57576.8	112.1	2.36
57580.8	112.7	2.37
57584.8	112.6	2.37
57588.8	114.1	2.40
57592.8	117.2	2.46
57596.8	118.6	2.49
57600.8	118.4	2.49
57604.8	118.6	2.49
57608.8	118.4	2.49
57612.8	117.7	2.47
57616.8	119.0	2.50
57620.8	120.7	2.53
57624.8	120.7	2.53
57628.8	120.0	2.52
57632.8	119.3	2.51
57636.8	117.9	2.48
57640.8	118.6	2.49
57644.8	122.1	2.56
57648.8	124.1	2.61
57652.8	122.1	2.57
57656.8	119.6	2.51
57660.8	118.6	2.49
57664.8	119.3	2.50
57668.8	120.8	2.54
57672.8	122.2	2.57
57676.8	122.8	2.58
57680.8	122.7	2.58
57684.8	122.4	2.57
57688.8	122.5	2.57
57692.8	122.5	2.57
57696.8	122.2	2.57
57700.8	121.5	2.55
57704.8	121.0	2.54
57708.8	120.8	2.54
57712.8	121.0	2.54
57716.8	121.0	2.54
57720.8	121.1	2.54
57724.8	121.8	2.56
57728.8	122.5	2.57
57732.8	122.2	2.57
57736.8	121.5	2.55
57740.8	120.9	2.54
57744.8	121.4	2.55
57748.8	121.9	2.56
57752.8	121.8	2.56
57756.8	121.3	2.55
57760.8	119.8	2.52
57764.8	117.6	2.47
57768.8	117.5	2.47
57772.8	120.3	2.53
57776.8	123.7	2.60
57780.8	124.6	2.62
57784.8	122.4	2.57
57788.8	118.8	2.50
57792.8	117.5	2.47
57796.8	117.9	2.48
57800.8	119.2	2.50
57804.8	122.6	2.57
57808.8	124.0	2.60
57812.8	120.7	2.54
57816.8	117.3	2.46
57820.8	114.8	2.41
57824.8	112.9	2.37
57828.8	116.3	2.44
57832.8	124.7	2.62
57836.8	129.1	2.71
57840.7	128.7	2.70
57844.7	126.9	2.66
57848.8	124.2	2.61
57852.8	120.2	2.52
57856.8	116.5	2.45
57860.8	114.6	2.41
57864.8	116.7	2.45
57868.8	122.5	2.57
57872.8	127.6	2.68
57876.8	131.5	2.76
57880.7	136.1	2.86
57884.7	137.8	2.89
57888.7	135.4	2.84
57892.7	132.0	2.77
57896.7	126.7	2.66
57900.7	119.9	2.52
57904.7	117.4	2.46
57908.8	117.8	2.47
57912.7	117.2	2.46
57916.7	118.1	2.48
57920.7	122.3	2.57
57924.7	125.0	2.63
57928.7	125.3	2.63
57932.7	125.8	2.64
57936.7	127.2	2.67
57940.7	128.1	2.69
57944.7	128.4	2.70
57948.7	129.5	2.72
57952.7	132.1	2.77
57956.7	133.9	2.81
57960.7	134.5	2.82
57964.7	134.7	2.83
57968.7	134.6	2.83
57972.7	134.6	2.83
57976.7	135.0	2.84
57980.7	135.1	2.84
57984.7	135.7	2.85
57988.7	137.2	2.88
57992.7	138.1	2.90
57996.7	137.4	2.89
58000.7	135.9	2.85
58004.8	134.4	2.82
58008.7	133.8	2.81
58012.7	134.0	2.81
58016.7	135.4	2.84
58020.7	137.5	2.89
58024.7	139.3	2.93
58028.7	139.1	2.92
58032.7	137.7	2.89
58036.7	136.5	2.87
58040.7	135.6	2.85
58044.7	135.1	2.84
58048.7	134.9	2.83
58052.7	134.0	2.81
58056.7	132.6	2.78
58060.7	131.5	2.76
58064.7	131.7	2.77
58068.7	132.7	2.79
58072.7	133.0	2.79
58076.7	132.5	2.78
58080.7	132.8	2.79
58084.7	134.3	2.82
58088.7	136.1	2.86
58092.7	135.9	2.85
58096.7	133.8	2.81
58100.7	131.7	2.77
58104.7	130.2	2.74
58108.7	128.9	2.71
58112.7	128.4	2.70
58116.7	128.3	2.69
58120.7	129.4	2.72
58124.7	131.7	2.77
58128.7	133.8	2.81
58132.7	133.7	2.81
58136.7	130.5	2.74
58140.7	126.4	2.65
58144.7	124.1	2.61
58148.7	123.6	2.60
58152.7	125.1	2.63
58156.7	127.9	2.69
58160.7	130.2	2.73
58164.7	131.8	2.77
58168.7	133.3	2.80
58172.7	133.2	2.80
58176.7	130.3	2.74
58180.7	126.5	2.66
58184.7	126.7	2.66
58188.7	129.5	2.72
58192.7	130.8	2.75
58196.7	130.7	2.74
58200.7	131.1	2.75
58204.7	131.2	2.76
58208.7	130.6	2.74
58212.7	129.4	2.72
58216.7	128.6	2.70
58220.7	128.4	2.70
58224.7	128.3	2.69
58228.7	127.5	2.68
58232.7	126.0	2.65
58236.7	124.3	2.61
58240.7	124.4	2.61
58244.7	127.1	2.67
58248.7	130.7	2.74
58252.7	132.4	2.78
58256.7	132.7	2.79
58260.7	132.5	2.78
58264.7	131.7	2.77
58268.7	130.6	2.74
58272.7	129.1	2.71
58276.7	126.2	2.65
58280.7	124.4	2.61
58284.7	124.9	2.62
58288.7	125.7	2.64
58292.7	125.4	2.63
58296.7	124.7	2.62
58300.7	125.9	2.64
58304.7	128.5	2.70
58308.7	129.3	2.72
58312.7	129.5	2.72
58316.7	127.7	2.68
58320.7	125.3	2.63
58324.7	124.9	2.62
58328.7	126.7	2.66
58332.7	129.5	2.72
58336.7	131.6	2.76
58340.7	133.3	2.80
58344.7	134.9	2.83
58348.7	135.9	2.85
58352.7	136.2	2.86
58356.7	136.0	2.86
58360.7	135.3	2.84
58364.7	134.7	2.83
58368.7	134.9	2.83
58372.7	135.1	2.84
58376.7	135.3	2.84
58380.7	136.1	2.86
58384.7	136.8	2.87
58388.7	136.8	2.87
58392.7	136.8	2.87
58396.7	136.3	2.86
58400.7	136.1	2.86
58404.7	136.2	2.86
58408.7	136.4	2.86
58412.7	136.9	2.88
58416.7	136.8	2.87
58420.7	135.9	2.85
58424.7	135.7	2.85
58428.7	135.9	2.85
58432.6	135.6	2.85
58436.6	135.3	2.84
58440.6	135.7	2.85
58444.6	135.6	2.85
58448.6	134.8	2.83
58452.6	133.7	2.81
58456.6	133.3	2.80
58460.6	133.1	2.80
58464.6	133.1	2.79
58468.6	133.0	2.79
58472.6	132.9	2.79
58476.6	132.5	2.78
58480.6	131.4	2.76
58484.6	129.9	2.73
58488.6	132.0	2.77
58492.6	139.2	2.92
58496.6	146.1	3.07
58500.6	150.2	3.15
58504.6	155.1	3.26
58508.6	161.3	3.39
58512.6	162.6	3.41
58516.6	158.6	3.33
58520.6	157.0	3.30
58524.6	162.9	3.42
58528.7	171.2	3.59
58532.6	171.9	3.61
58536.6	165.4	3.47
58540.6	159.0	3.34
58544.6	152.7	3.21
58548.6	146.9	3.08
58552.6	143.4	3.01
58556.6	138.7	2.91
58560.6	134.0	2.81
58564.6	131.6	2.76
58568.6	136.7	2.87
58572.7	144.6	3.04
58576.6	141.9	2.98
58580.6	135.1	2.84
58584.6	133.5	2.80
58588.6	134.6	2.83
58592.6	134.1	2.82
58596.6	130.1	2.73
58600.6	127.6	2.68
58604.6	130.1	2.73
58608.6	139.2	2.92
58612.6	150.4	3.16
58616.6	148.9	3.13
58620.6	139.5	2.93
58624.6	144.1	3.03
58628.6	148.8	3.12
58632.6	143.8	3.02
58636.6	155.2	3.26
58640.6	176.4	3.70
58644.6	181.6	3.81
58648.6	176.0	3.70
58652.6	177.5	3.73
58656.6	197.5	4.15
58660.6	225.4	4.73
58664.6	241.4	5.07
58668.6	244.6	5.14
58672.6	242.3	5.09
58676.6	225.5	4.74
58680.6	199.7	4.19
58684.6	193.3	4.06
58688.6	202.9	4.26
58692.6	206.6	4.34
58696.6	202.3	4.25
58700.6	194.9	4.09
58704.6	190.9	4.01
58708.6	189.6	3.98
58712.6	190.6	4.00
58716.6	192.2	4.04
58720.6	189.7	3.98
58724.6	185.5	3.89
58728.6	183.7	3.86
58732.6	183.5	3.85
58736.6	181.0	3.80
58740.6	175.9	3.69
58744.6	169.0	3.55
58748.6	161.7	3.40
58752.6	158.3	3.32
58756.6	157.9	3.32
58760.6	153.7	3.23
58764.6	147.6	3.10
58768.6	143.6	3.02
58772.6	135.0	2.84
58776.6	131.6	2.76
58780.6	147.1	3.09
58784.6	167.3	3.51
58788.6	176.6	3.71
58792.6	175.0	3.67
58796.6	170.9	3.59
58800.6	173.5	3.64
58804.6	174.9	3.67
58808.6	172.5	3.62
58812.6	172.8	3.63
58816.6	168.8	3.54
58820.6	154.3	3.24
58824.6	138.2	2.90
58828.6	129.5	2.72
58832.6	125.6	2.64
58836.6	124.3	2.61
58840.6	125.1	2.63
58844.6	121.6	2.55
58848.6	114.7	2.41
58852.6	111.1	2.33
58856.6	111.2	2.34
58860.6	110.6	2.32
58864.6	107.9	2.27
58868.6	106.5	2.24
58872.6	108.2	2.27
58876.6	110.8	2.33
58880.6	111.3	2.34
58884.6	108.8	2.28
58888.6	107.1	2.25
58892.6	107.0	2.25
58896.6	106.1	2.23
58900.6	104.5	2.19
58904.6	103.0	2.16
58908.6	101.9	2.14
58912.6	101.8	2.14
58916.6	101.7	2.14
58920.6	101.9	2.14
58924.6	102.5	2.15
58928.6	103.5	2.17
58932.6	103.9	2.18
58936.6	103.9	2.18
58940.6	104.7	2.20
58944.6	106.9	2.25
58948.6	109.2	2.29
58952.6	110.0	2.31
58956.6	109.6	2.30
58960.6	109.2	2.29
58964.6	109.4	2.30
58968.6	110.0	2.31
58972.6	109.7	2.30
58976.6	109.7	2.30
58980.6	110.6	2.32
58984.6	111.5	2.34
58988.6	111.6	2.34
58992.6	111.3	2.34
58996.6	110.9	2.33
59000.6	111.5	2.34
59004.6	112.3	2.36
59008.6	112.5	2.36
59012.6	112.6	2.36
59016.6	112.7	2.37
59020.6	112.9	2.37
59024.6	113.0	2.37
59028.6	113.0	2.37
59032.6	114.0	2.39
59036.6	114.9	2.41
59040.6	115.1	2.42
59044.6	115.2	2.42
59048.6	115.3	2.42
59052.5	116.2	2.44
59056.5	118.4	2.49
59060.5	120.5	2.53
59064.5	121.9	2.56
59068.5	122.6	2.58
59072.5	123.1	2.59
59076.5	123.4	2.59
59080.5	123.6	2.60
59084.5	123.2	2.59
59088.6	122.4	2.57
59092.5	121.9	2.56
59096.5	122.4	2.57
59100.5	123.1	2.59
59104.5	123.1	2.59
59108.6	122.9	2.58
59112.5	122.2	2.57
59116.5	120.3	2.53
59120.5	118.8	2.49
59124.5	118.3	2.48
59128.5	119.7	2.51
59132.5	122.3	2.57
59136.5	124.0	2.60
59140.5	124.3	2.61
59144.5	122.5	2.57
59148.5	119.9	2.52
59152.5	119.9	2.52
59156.5	121.5	2.55
59160.5	122.9	2.58
59164.5	123.9	2.60
59168.6	125.0	2.62
59172.5	125.8	2.64
59176.5	126.0	2.65
59180.5	125.9	2.64
59184.5	126.4	2.66
59188.5	127.4	2.68
59192.5	128.2	2.69
59196.5	128.3	2.69
59200.5	128.1	2.69
59204.5	127.9	2.69
59208.5	127.9	2.69
59212.5	127.9	2.69
59216.5	127.7	2.68
59220.5	127.6	2.68
59224.5	127.6	2.68
59228.5	127.7	2.68
59232.5	127.8	2.68
59236.5	127.4	2.68
59240.5	127.2	2.67
59244.5	127.2	2.67
59248.5	127.3	2.67
59252.5	127.6	2.68
59256.5	128.1	2.69
59260.5	128.3	2.69
59264.5	128.6	2.70
59268.5	129.3	2.72
59272.5	129.9	2.73
59276.5	130.2	2.73
59280.5	130.7	2.74
59284.5	131.3	2.76
59288.5	132.2	2.78
59292.5	133.0	2.79
59296.5	132.3	2.78
59300.5	129.5	2.72
59304.5	127.6	2.68
59308.5	127.2	2.67
59312.5	127.2	2.67
59316.5	127.1	2.67
59320.5	127.1	2.67
59324.5	127.3	2.67
59328.5	127.2	2.67
59332.5	126.8	2.66
59336.5	126.7	2.66
59340.5	126.8	2.66
59344.5	127.3	2.67
59348.5	127.8	2.68
59352.5	128.6	2.70
59356.5	129.7	2.72
59360.5	130.8	2.75
59364.5	130.9	2.75
59368.5	130.9	2.75
59372.5	131.5	2.76
59376.5	132.1	2.77
59380.5	132.7	2.79
59384.5	132.8	2.79
59388.5	132.0	2.77
59392.5	130.8	2.75
59396.5	130.0	2.73
59400.5	130.9	2.75
59404.5	132.1	2.78
59408.5	132.1	2.77
59412.5	130.9	2.75
59416.5	129.6	2.72
59420.5	129.0	2.71
59424.5	128.8	2.71
59428.5	128.1	2.69
59432.5	127.3	2.67
59436.5	126.3	2.65
59440.5	125.3	2.63
59444.5	128.2	2.69
59448.5	134.4	2.82
59452.5	135.4	2.84
59456.5	134.5	2.82
59460.5	137.8	2.89
59464.5	140.6	2.95
59468.5	140.5	2.95
59472.5	139.7	2.93
59476.5	138.8	2.91
59480.5	137.4	2.88
59484.5	136.7	2.87
59488.5	138.1	2.90
59492.5	139.4	2.93
59496.5	140.3	2.95
59500.5	140.9	2.96
59504.5	140.7	2.95
59508.5	140.3	2.95
59512.5	140.8	2.96
59516.5	141.2	2.97
59520.5	141.6	2.97
59524.5	141.5	2.97
59528.5	140.3	2.95
59532.5	137.6	2.89
59536.5	135.7	2.85
59540.5	135.9	2.85
59544.5	137.0	2.88
59548.5	136.6	2.87
59552.5	135.4	2.84
59556.5	134.2	2.82
59560.5	135.8	2.85
59564.5	153.6	3.22
59568.5	188.6	3.96
59572.5	215.9	4.53
59576.5	229.8	4.83
59580.5	239.4	5.03
59584.5	245.1	5.15
59588.5	249.9	5.25
59592.5	257.2	5.40
59596.5	265.0	5.57
59600.5	272.5	5.72
59604.5	280.2	5.88
59608.5	288.2	6.05
59612.5	289.6	6.08
59616.5	276.7	5.81
59620.5	257.2	5.40
59624.5	245.6	5.16
59628.5	242.4	5.09
59632.5	240.5	5.05
59636.5	238.2	5.00
59640.5	240.9	5.06
59644.5	247.3	5.19
59648.5	249.4	5.24
59652.5	248.3	5.21
59656.5	253.5	5.32
59660.5	260.7	5.47
59664.5	252.2	5.30
59668.5	227.6	4.78
59672.4	208.6	4.38
59676.4	203.0	4.26
59680.4	204.0	4.28
59684.5	205.5	4.32
59688.4	206.3	4.33
59692.5	207.9	4.37
59696.5	209.1	4.39
59700.5	209.1	4.39
59704.4	209.4	4.40
59708.5	209.7	4.40
59712.5	209.4	4.40
59716.4	208.7	4.38
59720.5	208.7	4.38
59724.4	208.9	4.39
59728.4	208.6	4.38
59732.4	207.8	4.36
59736.4	208.1	4.37
59740.4	209.5	4.40
59744.4	211.9	4.45
59748.4	215.6	4.53
59752.4	220.6	4.63
59756.4	224.3	4.71
59760.4	226.9	4.76
59764.5	229.5	4.82
59768.4	229.6	4.82
59772.4	226.5	4.76
59776.4	225.4	4.73
59780.4	227.9	4.79
59784.4	230.9	4.85
59788.4	233.1	4.89
59792.4	236.1	4.96
59796.4	239.6	5.03
59800.4	243.0	5.10
59804.4	250.0	5.25
59808.4	260.8	5.48
59812.4	268.8	5.64
59816.4	271.8	5.71
59820.4	270.6	5.68
59824.4	267.6	5.62
59828.4	267.2	5.61
59832.4	271.5	5.70
59836.4	276.9	5.82
59840.4	279.7	5.87
59844.4	278.8	5.85
59848.4	278.3	5.84
59852.4	280.9	5.90
59856.4	284.7	5.98
59860.4	287.0	6.03
59864.4	288.3	6.05
59868.4	289.0	6.07
59872.4	290.6	6.10
59876.4	292.6	6.14
59880.4	294.1	6.18
59884.4	295.1	6.20
59888.4	295.5	6.21
59892.4	296.3	6.22
59896.4	298.7	6.27
59900.4	298.0	6.26
59904.4	298.0	6.26
59908.4	308.4	6.48
59912.4	323.1	6.78
59916.4	327.7	6.88
59920.4	329.1	6.91
59924.4	335.9	7.05
59928.4	342.8	7.20
59932.4	347.7	7.30
59936.4	351.9	7.39
59940.4	353.1	7.42
59944.4	354.1	7.44
59948.4	354.6	7.45
59952.4	352.3	7.40
59956.4	349.2	7.33
59960.4	349.2	7.33
59964.4	351.9	7.39
59968.4	357.7	7.51
59972.4	365.0	7.67
59976.4	370.6	7.78
59980.4	372.2	7.82
59984.4	371.7	7.81
59988.4	370.4	7.78
59992.4	369.0	7.75
59996.4	366.6	7.70
60000.4	365.0	7.66
60004.4	366.9	7.70
60008.4	368.4	7.74
60012.4	366.5	7.70
60016.4	366.2	7.69
60020.4	367.5	7.72
60024.4	369.0	7.75
60028.4	370.6	7.78
60032.4	372.5	7.82
60036.4	373.5	7.84
60040.4	372.4	7.82
60044.4	366.7	7.70
60048.4	358.8	7.53
60052.4	351.8	7.39
60056.4	345.4	7.25
60060.4	338.0	7.10
60064.4	333.3	7.00
60068.4	336.1	7.06
60072.4	344.5	7.24
60076.4	351.9	7.39
60080.4	356.2	7.48
60084.4	357.8	7.51
60088.4	358.9	7.54
60092.4	359.7	7.55
60096.4	360.4	7.57
60100.4	360.8	7.58
60104.4	360.9	7.58
60108.4	361.7	7.60
60112.4	365.5	7.68
60116.4	370.5	7.78
60120.4	373.7	7.85
60124.4	374.7	7.87
60128.4	374.6	7.87
60132.4	373.2	7.84
60136.4	373.4	7.84
60140.4	375.8	7.89
60144.4	379.5	7.97
60148.4	381.8	8.02
60152.4	381.0	8.00
60156.4	377.7	7.93
60160.4	376.1	7.90
60164.4	376.4	7.90
60168.4	378.0	7.94
60172.4	379.9	7.98
60176.4	380.5	7.99
60180.4	380.6	7.99
60184.4	383.2	8.05
60188.4	386.5	8.12
60192.4	388.6	8.16
60196.4	388.9	8.17
60200.4	388.6	8.16
60204.4	387.6	8.14
60208.4	388.0	8.15
60212.4	389.2	8.17
60216.4	389.9	8.19
60220.4	390.0	8.19
60224.4	391.5	8.22
60228.4	392.6	8.25
60232.4	393.0	8.25
60236.4	393.3	8.26
60240.4	394.2	8.28
60244.4	394.7	8.29
60248.4	395.6	8.31
60252.4	397.2	8.34
60256.4	398.0	8.36
60260.4	397.4	8.35
60264.4	396.0	8.32
60268.4	394.2	8.28
60272.4	394.2	8.28
60276.4	395.2	8.30
60280.4	396.2	8.32
60284.3	397.5	8.35
60288.4	400.7	8.42
60292.4	402.8	8.46
60296.4	404.2	8.49
60300.4	406.4	8.53
60304.4	408.9	8.59
60308.4	410.8	8.63
60312.3	411.8	8.65
60316.4	411.9	8.65
60320.3	410.2	8.61
60324.3	407.5	8.56
60328.3	410.3	8.62
60332.3	414.7	8.71
60336.3	416.3	8.74
60340.3	416.3	8.74
60344.3	416.4	8.74
60348.3	415.2	8.72
60352.3	413.3	8.68
60356.3	413.1	8.68
60360.3	413.5	8.68
60364.3	410.8	8.63
60368.3	410.2	8.61
60372.3	412.0	8.65
60376.3	413.5	8.68
60380.3	413.6	8.69
60384.4	413.4	8.68
60388.4	413.6	8.68
60392.4	414.5	8.70
60396.4	414.8	8.71
60400.3	414.6	8.71
60404.3	414.1	8.70
60408.3	414.3	8.70
60412.3	413.9	8.69
60416.3	413.0	8.67
60420.3	411.9	8.65
60424.3	411.4	8.64
60428.3	411.0	8.63
60432.3	411.1	8.63
60436.3	410.5	8.62
60440.3	409.9	8.61
60444.3	408.9	8.59
60448.3	408.6	8.58
60452.3	408.5	8.58
60456.3	408.9	8.59
60460.3	409.2	8.59
60464.3	411.3	8.64
60468.3	414.9	8.71
60472.3	416.0	8.74
60476.3	413.8	8.69
60480.3	414.6	8.71
60484.3	417.9	8.77
60488.3	419.8	8.82
60492.3	419.6	8.81
60496.3	418.0	8.78
60500.3	415.5	8.73
60504.3	414.8	8.71
60508.3	415.7	8.73
60512.3	417.0	8.76
60516.3	416.8	8.75
60520.3	415.9	8.73
60524.3	414.7	8.71
60528.3	414.6	8.71
60532.3	414.2	8.70
60536.3	413.7	8.69
60540.3	412.9	8.67
60544.3	412.8	8.67
60548.3	413.2	8.68
60552.3	414.0	8.69
60556.3	414.6	8.71
60560.3	415.2	8.72
60564.3	415.3	8.72
60568.3	414.9	8.71
60572.3	414.0	8.69
60576.3	413.9	8.69
60580.3	414.5	8.70
60584.3	417.2	8.76
60588.3	420.7	8.83
60592.3	422.9	8.88
60596.3	423.6	8.90
60600.3	423.7	8.90
60604.3	422.8	8.88
60608.3	421.8	8.86
60612.3	421.0	8.84
60616.3	420.8	8.84
60620.3	420.3	8.83
60624.3	419.9	8.82
60628.3	419.1	8.80
60632.3	417.9	8.78
60636.3	416.8	8.75
60640.3	416.7	8.75
60644.3	416.6	8.75
60648.3	416.7	8.75
60652.3	416.6	8.75
60656.3	416.7	8.75
60660.3	416.6	8.75
60664.3	416.0	8.74
60668.3	414.2	8.70
60672.3	413.1	8.67
60676.3	412.0	8.65
60680.3	411.1	8.63
60684.3	410.7	8.62
60688.3	412.3	8.66
60692.3	414.1	8.70
60696.3	414.3	8.70
60700.3	412.9	8.67
60704.3	412.6	8.67
60708.3	412.8	8.67
60712.3	413.6	8.69
60716.3	414.1	8.70
60720.3	414.7	8.71
60724.3	414.7	8.71
60728.3	414.8	8.71
60732.3	414.7	8.71
60736.3	415.5	8.73
60740.3	416.3	8.74
60744.3	416.6	8.75
60748.3	416.2	8.74
60752.3	416.8	8.75
60756.3	418.5	8.79
60760.3	419.9	8.82
60764.3	420.4	8.83
60768.3	421.3	8.85
60772.3	422.2	8.87
60776.3	423.2	8.89
60780.3	423.2	8.89
60784.3	423.6	8.89
60788.3	425.0	8.92
60792.3	427.2	8.97
60796.3	428.6	9.00
60800.3	429.2	9.01
60804.3	429.0	9.01
60808.3	428.6	9.00
60812.3	428.2	8.99
60816.3	428.4	9.00
60820.3	427.7	8.98
60824.3	427.3	8.97
60828.3	427.1	8.97
60832.3	427.0	8.97
60836.3	427.0	8.97
60840.3	426.7	8.96
60844.2	424.3	8.91
60848.3	421.6	8.85
60852.3	420.0	8.82
60856.3	421.1	8.84
60860.3	423.2	8.89
60864.3	423.9	8.90
60868.3	422.7	8.88
60872.3	421.7	8.86
60876.3	420.2	8.82
60880.3	419.3	8.80
60884.3	418.5	8.79
60888.3	418.0	8.78
60892.3	419.6	8.81
60896.2	427.8	8.98
60900.2	438.3	9.20
60904.2	444.6	9.34
60908.3	445.4	9.35
60912.3	443.2	9.31
60916.2	440.6	9.25
60920.2	440.8	9.26
60924.2	439.1	9.22
60928.2	434.6	9.13
60932.2	431.4	9.06
60936.2	429.6	9.02
60940.3	428.9	9.01
60944.2	433.9	9.11
60948.2	441.6	9.27
60952.2	444.3	9.33
60956.2	442.6	9.29
60960.2	441.1	9.26
60964.2	438.7	9.21
60968.2	437.4	9.19
60972.2	439.1	9.22
60976.2	444.2	9.33
60980.2	449.9	9.45
60984.2	454.3	9.54
60988.2	455.9	9.57
60992.2	455.8	9.57
60996.2	455.5	9.57
61000.2	455.7	9.57
61004.2	455.3	9.56
61008.2	455.3	9.56
61012.2	455.0	9.56
61016.2	454.8	9.55
61020.2	454.0	9.53
61024.2	452.0	9.49
61028.2	450.1	9.45
61032.2	450.6	9.46
61036.2	452.3	9.50
61040.2	454.4	9.54
61044.2	454.1	9.54
61048.2	450.9	9.47
61052.2	448.4	9.42
61056.2	450.8	9.47
61060.2	454.6	9.55
61064.2	456.5	9.59
61068.2	456.8	9.59
61072.2	456.9	9.59
61076.2	455.9	9.57
61080.2	455.6	9.57
61084.2	455.9	9.57
61088.2	455.1	9.56
61092.2	453.6	9.53
61096.2	454.2	9.54
61100.2	455.0	9.56
61104.2	456.3	9.58
61108.2	457.2	9.60
61112.2	457.7	9.61
61116.2	457.4	9.61
61120.2	457.6	9.61
61124.2	455.0	9.55
61128.2	440.2	9.24
61132.2	421.4	8.85
61136.2	422.6	8.87
61140.2	437.0	9.18
61144.2	449.6	9.44
61148.2	453.8	9.53
61152.2	450.1	9.45
61156.2	445.1	9.35
61160.2	442.1	9.28
61164.2	443.7	9.32
61168.2	446.4	9.37
61172.2	444.0	9.32
61176.2	440.7	9.25
61180.2	437.3	9.18
61184.2	434.8	9.13
61188.2	435.4	9.14
61192.2	435.9	9.15
61196.2	431.8	9.07
61200.2	430.5	9.04
61204.2	433.3	9.10
61208.2	437.8	9.19
61212.2	441.5	9.27
61216.2	440.7	9.25
61220.2	437.0	9.18
61224.2	439.3	9.23
61228.2	445.0	9.34
61232.2	444.6	9.34
61236.2	440.7	9.25
61240.2	442.3	9.29
61244.2	442.1	9.28
61248.2	438.2	9.20
61252.2	436.3	9.16
61256.2	438.1	9.20
61260.2	439.8	9.24
61264.2	440.5	9.25
61268.2	439.8	9.24
61272.2	439.5	9.23
61276.2	440.4	9.25
61280.2	439.3	9.23
61284.2	435.2	9.14
61288.2	433.9	9.11
61292.2	433.6	9.11
61296.2	435.3	9.14
61300.2	437.8	9.19
61304.2	436.9	9.18
61308.2	433.6	9.11
61312.2	433.4	9.10
61316.2	437.2	9.18
61320.2	443.3	9.31
61324.2	445.2	9.35
61328.2	443.4	9.31
61332.2	442.5	9.29
61336.2	440.7	9.26
61340.2	437.1	9.18
61344.2	437.2	9.18
61348.2	440.8	9.26
61352.2	442.9	9.30
61356.2	441.4	9.27
61360.2	441.4	9.27
61364.2	443.4	9.31
61368.2	443.3	9.31
61372.2	438.5	9.21
61376.2	435.2	9.14
61380.2	435.3	9.14
61384.2	438.2	9.20
61388.2	441.8	9.28
61392.2	443.5	9.31
61396.2	440.8	9.26
61400.2	435.8	9.15
61404.2	431.9	9.07
61408.2	433.2	9.10
61412.2	439.4	9.23
61416.2	444.1	9.33
61420.2	444.6	9.34
61424.2	444.7	9.34
61428.2	444.8	9.34
61432.2	445.1	9.35
61436.2	444.8	9.34
61440.2	444.5	9.34
61444.2	444.0	9.32
61448.2	443.7	9.32
61452.1	443.4	9.31
61456.2	442.6	9.30
61460.2	441.2	9.26
61464.2	441.5	9.27
61468.2	443.8	9.32
61472.2	444.9	9.34
61476.2	443.4	9.31
61480.2	443.7	9.32
61484.2	443.3	9.31
61488.2	439.4	9.23
61492.2	436.6	9.17
61496.2	437.4	9.19
61500.2	436.7	9.17
61504.2	433.4	9.10
61508.1	428.6	9.00
61512.1	422.4	8.87
61516.2	417.0	8.76
61520.1	413.2	8.68
61524.1	408.8	8.58
61528.1	407.3	8.55
61532.1	408.1	8.57
61536.1	410.9	8.63
61540.2	414.5	8.71
61544.1	411.4	8.64
61548.1	402.4	8.45
61552.1	397.0	8.34
61556.2	395.9	8.31
61560.1	396.9	8.33
61564.1	392.4	8.24
61568.1	382.6	8.04
61572.1	375.2	7.88
61576.1	372.0	7.81
61580.1	370.1	7.77
61584.1	370.2	7.77
61588.1	371.1	7.79
61592.1	368.5	7.74
61596.1	361.6	7.59
61600.1	356.0	7.48
61604.1	354.4	7.44
61608.1	354.9	7.45
61612.1	355.4	7.46
61616.1	353.9	7.43
61620.1	348.9	7.33
61624.1	346.3	7.27
61628.1	346.1	7.27
61632.1	345.4	7.25
61636.1	344.7	7.24
61640.1	344.6	7.24
61644.1	343.9	7.22
61648.1	343.6	7.22
61652.1	344.0	7.22
61656.1	344.7	7.24
61660.1	344.8	7.24
61664.1	345.1	7.25
61668.1	345.4	7.25
61672.1	345.6	7.26
61676.1	346.1	7.27
61680.1	348.5	7.32
61684.1	350.0	7.35
61688.1	350.8	7.37
61692.1	353.0	7.41
61696.1	360.5	7.57
61700.1	370.5	7.78
61704.1	372.5	7.82
61708.1	367.8	7.72
61712.1	363.2	7.63
61716.1	359.9	7.56
61720.1	360.0	7.56
61724.1	361.5	7.59
61728.2	362.5	7.61
61732.1	362.8	7.62
61736.1	364.0	7.64
61740.1	365.0	7.66
61744.1	364.9	7.66
61748.1	364.8	7.66
61752.1	368.2	7.73
61756.1	371.5	7.80
61760.1	374.9	7.87
61764.1	382.2	8.03
61768.1	392.6	8.24
61772.1	399.3	8.39
61776.1	402.9	8.46
61780.1	406.8	8.54
61784.1	413.1	8.67
61788.1	419.8	8.82
61792.1	424.2	8.91
61796.1	425.3	8.93
61800.1	424.7	8.92
61804.1	420.7	8.83
61808.1	417.2	8.76
61812.1	417.0	8.76
61816.1	420.7	8.84
61820.1	424.1	8.91
61824.1	426.8	8.96
61828.1	434.1	9.12
61832.1	436.9	9.18
61836.1	429.7	9.02
61840.1	427.2	8.97
61844.1	434.5	9.12
61848.1	445.8	9.36
61852.1	450.6	9.46
61856.1	446.7	9.38
61860.1	440.8	9.26
61864.1	436.4	9.16
61868.1	433.1	9.10
61872.1	434.1	9.12
61876.1	435.6	9.15
61880.1	435.5	9.15
61884.1	435.8	9.15
61888.1	434.4	9.12
61892.1	431.3	9.06
61896.1	430.6	9.04
61900.1	430.0	9.03
61904.1	429.2	9.01
61908.1	426.7	8.96
61912.1	423.0	8.88
61916.1	421.5	8.85
61920.1	420.2	8.82
61924.1	413.3	8.68
61928.1	405.5	8.51
61932.1	399.3	8.39
61936.1	395.2	8.30
61940.1	398.1	8.36
61944.1	404.6	8.50
61948.1	405.5	8.51
61952.1	398.9	8.38
61956.1	391.6	8.22
61960.1	388.6	8.16
61964.1	388.9	8.17
61968.1	390.1	8.19
61972.1	388.5	8.16
61976.1	387.6	8.14
61980.1	387.5	8.14
61984.1	389.1	8.17
61988.1	392.0	8.23
61992.1	394.8	8.29
61996.1	400.0	8.40
62000.1	409.5	8.60
62004.1	413.9	8.69
62008.1	413.1	8.68
62012.1	414.0	8.69
62016.1	417.0	8.76
62020.1	417.6	8.77
62024.1	414.0	8.70
62028.1	409.6	8.60
62032.1	408.6	8.58
62036.1	410.4	8.62
62040.1	412.6	8.66
62044.1	413.9	8.69
62048.1	416.1	8.74
62052.1	418.1	8.78
62056.1	417.6	8.77
62060.1	415.8	8.73
62064.1	415.3	8.72
62068.1	414.7	8.71
62072.1	414.6	8.71
62076.1	414.3	8.70
62080.1	414.6	8.71
62084.1	415.4	8.72
62088.1	415.5	8.72
62092.1	414.9	8.71
62096.1	415.7	8.73
62100.1	416.3	8.74
62104.1	416.1	8.74
62108.1	415.3	8.72
62112.1	414.6	8.71
62116.1	413.5	8.68
62120.1	412.7	8.67
62124.1	412.1	8.65
62128.1	411.7	8.65
62132.1	410.9	8.63
62136.0	410.1	8.61
62140.1	409.1	8.59
62144.0	408.0	8.57
62148.1	407.3	8.55
62152.0	407.9	8.57
62156.1	408.8	8.58
62160.1	409.9	8.61
62164.1	410.4	8.62
62168.1	409.7	8.60
62172.1	408.7	8.58
62176.1	410.0	8.61
62180.1	412.7	8.67
62184.1	418.7	8.79
62188.1	426.6	8.96
62192.0	430.3	9.04
62196.0	430.5	9.04
62200.0	430.4	9.04
62204.0	429.5	9.02
62208.1	428.9	9.01
62212.0	428.8	9.00
62216.0	429.0	9.01
62220.0	429.0	9.01
62224.1	429.2	9.01
62228.1	428.0	8.99
62232.0	427.0	8.97
62236.1	426.9	8.97
62240.0	427.9	8.99
62244.0	429.2	9.01
62248.1	433.0	9.09
62252.1	438.2	9.20
62256.0	439.2	9.22
62260.0	435.8	9.15
62264.0	432.0	9.07
62268.1	428.6	9.00
62272.1	427.0	8.97
62276.1	426.7	8.96
62280.0	427.4	8.97
62284.0	425.0	8.92
62288.0	422.7	8.88
62292.0	425.8	8.94
62296.0	429.7	9.02
62300.0	430.7	9.04
62304.0	437.0	9.18
62308.0	448.4	9.42
62312.0	453.6	9.53
62316.0	450.2	9.45
62320.0	446.3	9.37
62324.0	443.4	9.31
62328.0	440.6	9.25
62332.1	437.7	9.19
62336.0	442.1	9.28
62340.0	454.2	9.54
62344.0	457.7	9.61
62348.0	445.5	9.35
62352.0	433.9	9.11
62356.0	433.4	9.10
62360.0	434.0	9.11
62364.0	426.5	8.96
62368.0	422.2	8.87
62372.0	422.4	8.87
62376.0	422.9	8.88
62380.0	423.5	8.89
62384.0	428.3	8.99
62388.0	437.1	9.18
62392.0	444.5	9.34
62396.0	446.2	9.37
62400.0	446.0	9.37
62404.0	445.7	9.36
62408.0	446.3	9.37
62412.0	445.9	9.36
62416.0	445.9	9.36
62420.0	446.5	9.38
62424.0	447.0	9.39
62428.0	445.8	9.36
62432.0	443.7	9.32
62436.0	441.0	9.26
62440.0	441.0	9.26
62444.0	441.0	9.26
62448.0	440.9	9.26
62452.0	440.4	9.25
62456.0	441.5	9.27
62460.0	445.8	9.36
62464.0	450.7	9.47
62468.0	453.9	9.53
62472.0	458.5	9.63
62476.0	458.4	9.63
62480.0	449.5	9.44
62484.0	439.5	9.23
62488.0	435.4	9.14
62492.0	434.2	9.12
62496.0	433.9	9.11
62500.0	433.7	9.11
62504.1	432.3	9.08
62508.0	431.8	9.07
62512.0	432.8	9.09
62516.0	429.9	9.03
62520.0	425.4	8.93
62524.0	423.5	8.89
62528.0	424.7	8.92
62532.0	426.3	8.95
62536.1	427.8	8.98
62540.0	430.1	9.03
62544.0	432.5	9.08
62548.0	433.1	9.09
62552.0	433.3	9.10
62556.0	433.3	9.10
62560.0	433.3	9.10
62564.0	432.4	9.08
62568.0	431.9	9.07
62572.0	431.3	9.06
62576.0	431.0	9.05
62580.0	430.7	9.04
62584.0	429.1	9.01
62588.0	426.1	8.95
62592.0	424.9	8.92
62596.0	425.0	8.93
62600.0	425.8	8.94
62604.0	426.0	8.95
62608.0	426.0	8.95
62612.0	425.2	8.93
62616.0	425.0	8.93
62620.0	426.0	8.95
62624.0	427.8	8.98
62628.0	430.4	9.04
62632.0	435.3	9.14
62636.0	439.5	9.23
62640.0	440.1	9.24
62644.0	438.9	9.22
62648.0	438.8	9.21
62652.0	439.1	9.22
62656.0	439.6	9.23
62660.0	440.0	9.24
62664.0	440.8	9.26
62668.0	441.1	9.26
62672.0	441.1	9.26
62676.0	441.5	9.27
62680.0	442.4	9.29
62684.0	442.5	9.29
62688.0	443.0	9.30
62692.0	443.5	9.31
62696.0	444.1	9.33
62700.0	444.2	9.33
62704.0	444.5	9.33
62708.0	445.5	9.35
62712.0	447.3	9.39
62716.0	448.5	9.42
62720.0	449.1	9.43
62724.0	448.7	9.42
62728.0	447.9	9.41
62732.0	447.5	9.40
62736.0	447.5	9.40
62740.0	446.2	9.37
62744.0	444.4	9.33
62748.0	441.1	9.26
62752.0	436.7	9.17
62756.0	432.8	9.09
62760.0	431.2	9.06
62764.0	429.6	9.02
62768.0	428.3	8.99
62772.0	427.2	8.97
62776.0	426.8	8.96
62780.0	426.2	8.95
62784.0	426.2	8.95
62788.0	427.8	8.98
62791.9	430.7	9.04
62796.0	431.0	9.05
62800.0	430.6	9.04
62804.0	429.9	9.03
62807.9	428.5	9.00
62812.0	426.9	8.96
62815.9	427.3	8.97
62820.0	428.6	9.00
62824.0	429.6	9.02
62828.0	429.1	9.01
62832.0	428.7	9.00
62836.0	428.3	8.99
62839.9	427.9	8.99
62844.0	426.5	8.96
62848.0	425.8	8.94
62852.0	424.1	8.91
62856.0	419.8	8.82
62860.0	422.8	8.88
62864.0	429.5	9.02
62867.9	423.7	8.90
62872.0	420.9	8.84
62875.9	423.8	8.90
62879.9	412.0	8.65
62884.0	390.5	8.20
62887.9	363.8	7.64
62891.9	324.7	6.82
62896.0	289.0	6.07
62900.0	274.6	5.77
62904.0	274.1	5.76
62908.0	274.9	5.77
62912.0	275.3	5.78
62916.0	275.8	5.79
62920.0	275.4	5.78
62924.0	273.5	5.74
62927.9	272.6	5.72
62931.9	272.9	5.73
62935.9	273.6	5.75
62939.9	273.4	5.74
62944.0	273.1	5.73
62947.9	273.1	5.74
62951.9	273.7	5.75
62956.0	274.4	5.76
62959.9	275.0	5.78
62963.9	275.1	5.78
62967.9	275.5	5.79
62972.0	276.9	5.82
62976.0	279.0	5.86
62980.0	279.8	5.88
62983.9	280.3	5.89
62987.9	281.1	5.90
62991.9	282.0	5.92
62995.9	283.7	5.96
62999.9	289.1	6.07
63003.9	301.4	6.33
63007.9	319.1	6.70
63011.9	332.0	6.97
63016.0	335.1	7.04
63020.0	332.2	6.98
63023.9	326.5	6.86
63028.0	317.3	6.66
63031.9	310.4	6.52
63035.9	307.1	6.45
63040.0	301.9	6.34
63043.9	297.7	6.25
63047.9	298.7	6.27
63051.9	302.4	6.35
63056.0	306.9	6.44
63060.0	309.8	6.51
63063.9	307.9	6.46
63067.9	302.0	6.34
63071.9	296.3	6.22
63075.9	292.3	6.14
63080.0	291.2	6.11
63084.0	291.2	6.12
63087.9	291.6	6.12
63091.9	291.8	6.13
63095.9	292.0	6.13
63099.9	291.6	6.12
63103.9	291.5	6.12
63107.9	293.4	6.16
63111.9	298.7	6.27
63115.9	302.6	6.36
63119.9	306.7	6.44
63123.9	315.4	6.62
63127.9	333.9	7.01
63131.9	358.9	7.54
63135.9	373.8	7.85
63139.9	378.7	7.95
63143.9	388.5	8.16
63147.9	402.4	8.45
63151.9	408.3	8.57
63155.9	404.0	8.48
63159.9	396.4	8.33
63163.9	389.8	8.19
63167.9	388.7	8.16
63171.9	387.8	8.14
63175.9	389.5	8.18
63179.9	393.2	8.26
63183.9	395.3	8.30
63187.9	402.1	8.44
63191.9	411.3	8.64
63195.9	414.9	8.71
63199.9	416.8	8.75
63203.9	417.6	8.77
63207.9	417.7	8.77
63211.9	416.7	8.75
63215.9	411.7	8.65
63219.9	407.2	8.55
63223.9	407.9	8.57
63227.9	404.4	8.49
63231.9	399.8	8.40
63235.9	396.9	8.33
63239.9	393.1	8.26
63243.9	390.3	8.20
63247.9	390.0	8.19
63251.9	390.5	8.20
63255.9	391.5	8.22
63259.9	392.0	8.23
63263.9	392.2	8.24
63267.9	392.0	8.23
63271.9	392.4	8.24
63275.9	393.4	8.26
63279.9	395.4	8.30
63283.9	395.6	8.31
63287.9	395.4	8.30
63291.9	395.5	8.31
63295.9	396.4	8.32
63299.9	398.2	8.36
63303.9	400.0	8.40
63307.9	401.3	8.43
63311.9	402.9	8.46
63315.9	403.7	8.48
63319.9	404.5	8.49
63323.9	404.8	8.50
63327.9	405.4	8.51
63331.9	405.8	8.52
63335.9	406.1	8.53
63339.9	405.7	8.52
63343.9	406.2	8.53
63347.9	408.1	8.57
63351.9	410.6	8.62
63355.9	409.0	8.59
63359.9	404.5	8.49
63363.9	401.0	8.42
63367.9	399.4	8.39
63371.9	397.8	8.35
63375.9	397.8	8.35
63379.9	397.1	8.34
63383.9	396.2	8.32
63387.9	395.0	8.29
63391.9	393.2	8.26
63395.9	391.9	8.23
63399.9	390.9	8.21
63403.9	390.8	8.21
63407.9	394.0	8.27
63411.9	398.1	8.36
63415.9	400.0	8.40
63419.9	399.4	8.39
63423.9	398.2	8.36
63427.8	396.5	8.33
63431.9	394.9	8.29
63435.9	392.7	8.25
63439.9	391.3	8.22
63443.9	390.7	8.21
63447.9	390.3	8.20
63451.9	390.0	8.19
63455.9	390.3	8.20
63459.9	390.7	8.20
63463.9	391.9	8.23
63467.9	394.1	8.28
63471.9	397.3	8.34
63475.9	399.5	8.39
63479.9	399.8	8.40
63483.9	398.8	8.38
63487.9	400.5	8.41
63491.9	406.1	8.53
63495.9	412.5	8.66
63499.9	416.3	8.74
63503.9	416.5	8.75
63507.9	412.3	8.66
63511.8	409.0	8.59
63515.9	407.8	8.56
63519.9	397.2	8.34
63523.9	380.8	8.00
63527.9	382.1	8.02
63531.9	390.9	8.21
63535.8	378.3	7.94
63539.9	345.3	7.25
63543.8	312.3	6.56
63547.9	287.0	6.03
63551.9	274.4	5.76
63555.9	275.8	5.79
63559.9	289.0	6.07
63563.8	311.6	6.54
63567.9	338.1	7.10
63571.9	358.8	7.54
63575.9	368.9	7.75
63579.9	374.3	7.86
63583.8	383.9	8.06
63587.8	396.2	8.32
63591.8	402.6	8.46
63595.8	401.1	8.42
63599.9	401.2	8.43
63603.8	405.4	8.51
63607.8	411.1	8.63
63611.9	416.2	8.74
63615.8	420.0	8.82
63619.8	422.1	8.86
63623.9	428.8	9.01
63627.9	439.5	9.23
63631.8	444.7	9.34
63635.8	443.1	9.30
63639.8	438.1	9.20
63643.8	432.7	9.09
63647.9	430.3	9.04
63651.9	424.2	8.91
63655.9	415.6	8.73
63659.9	409.4	8.60
63663.8	403.9	8.48
63667.8	399.6	8.39
63671.9	393.9	8.27
63675.8	384.0	8.06
63679.8	378.6	7.95
63683.8	376.5	7.91
63687.8	375.4	7.88
63691.8	367.4	7.71
63695.8	351.1	7.37
63699.8	346.1	7.27
63703.9	350.4	7.36
63707.8	341.9	7.18
63711.9	325.2	6.83
63715.8	315.2	6.62
63719.8	312.5	6.56
63723.8	312.0	6.55
63727.9	312.8	6.57
63731.8	313.3	6.58
63735.8	313.5	6.58
63739.8	315.5	6.62
63743.8	317.1	6.66
63747.8	315.4	6.62
63751.8	315.3	6.62
63755.8	315.3	6.62
63759.8	313.6	6.59
63763.9	313.4	6.58
63767.8	313.3	6.58
63771.8	310.3	6.52
63775.8	308.4	6.48
63779.8	310.1	6.51
63783.8	313.6	6.59
63787.9	317.5	6.67
63791.8	322.6	6.77
63795.8	325.8	6.84
63799.8	321.7	6.76
63803.8	313.5	6.58
63807.8	309.4	6.50
63811.9	309.7	6.50
63815.9	310.1	6.51
63819.8	310.1	6.51
63823.8	314.0	6.59
63827.8	320.0	6.72
63831.8	324.2	6.81
63835.8	325.7	6.84
63839.8	325.7	6.84
63843.8	325.6	6.84
63847.8	325.4	6.83
63851.8	324.9	6.82
63855.8	325.0	6.83
63859.8	325.4	6.83
63863.8	325.8	6.84
63867.8	325.8	6.84
63871.8	325.5	6.84
63875.8	324.9	6.82
63879.8	324.9	6.82
63883.8	324.7	6.82
63887.8	324.2	6.81
63891.8	323.1	6.78
63895.8	321.7	6.76
63899.8	320.7	6.73
63903.8	320.5	6.73
63907.8	320.6	6.73
63911.8	320.1	6.72
63915.8	318.1	6.68
63919.8	315.5	6.63
63923.8	312.8	6.57
63927.8	311.5	6.54
63931.8	312.6	6.56
63935.8	313.4	6.58
63939.8	311.5	6.54
63943.8	311.4	6.54
63947.8	314.3	6.60
63951.8	319.6	6.71
63955.8	331.2	6.96
63959.8	346.0	7.27
63963.8	351.9	7.39
63967.8	354.5	7.44
63971.8	359.4	7.55
63975.8	362.7	7.62
63979.8	364.1	7.65
63983.8	359.0	7.54
63987.8	346.1	7.27
63991.8	339.5	7.13
63995.8	341.4	7.17
63999.8	345.3	7.25
64003.8	349.7	7.34
64007.8	355.8	7.47
64011.8	360.4	7.57
64015.8	357.8	7.51
64019.8	351.2	7.38
64023.8	347.5	7.30
64027.8	342.6	7.19
64031.8	335.8	7.05
64035.8	332.2	6.98
64039.8	335.2	7.04
64043.8	339.7	7.13
64047.8	338.1	7.10
64051.8	331.1	6.95
64055.8	325.6	6.84
64059.8	323.5	6.79
64063.8	322.4	6.77
64067.8	318.6	6.69
64071.8	314.6	6.61
64075.7	309.4	6.50
64079.8	301.5	6.33
64083.8	298.0	6.26
64087.8	298.0	6.26
64091.8	298.7	6.27
64095.8	302.2	6.35
64099.8	300.0	6.30
64103.8	292.0	6.13
64107.8	285.2	5.99
64111.8	281.7	5.92
64115.8	282.6	5.94
64119.8	290.2	6.09
64123.8	298.8	6.27
64127.8	301.4	6.33
64131.7	298.5	6.27
64135.8	295.4	6.20
64139.7	294.9	6.19
64143.8	294.3	6.18
64147.8	290.6	6.10
64151.7	287.8	6.04
64155.8	286.8	6.02
64159.8	287.7	6.04
64163.8	294.2	6.18
64167.8	305.9	6.42
64171.8	316.9	6.65
64175.8	327.2	6.87
64179.8	335.0	7.04
64183.8	338.5	7.11
64187.8	339.8	7.14
64191.8	340.6	7.15
64195.8	341.4	7.17
64199.8	342.7	7.20
64203.8	342.6	7.19
64207.8	341.2	7.17
64211.8	341.9	7.18
64215.8	347.6	7.30
64219.8	353.1	7.41
64223.8	355.2	7.46
64227.8	355.3	7.46
64231.8	355.3	7.46
64235.8	354.4	7.44
64239.8	352.7	7.41
64243.7	349.8	7.35
64247.8	347.5	7.30
64251.8	347.6	7.30
64255.8	349.1	7.33
64259.7	349.1	7.33
64263.8	347.5	7.30
64267.8	345.5	7.26
64271.8	345.6	7.26
64275.8	348.1	7.31
64279.8	351.7	7.39
64283.7	353.5	7.42
64287.8	353.1	7.42
64291.8	352.2	7.40
64295.8	352.2	7.40
64299.8	351.4	7.38
64303.8	350.8	7.37
64307.7	351.1	7.37
64311.8	349.4	7.34
64315.8	346.6	7.28
64319.8	346.6	7.28
64323.8	347.1	7.29
64327.8	347.1	7.29
64331.8	347.1	7.29
64335.8	347.5	7.30
64339.8	347.2	7.29
64343.8	345.1	7.25
64347.8	342.0	7.18
64351.8	341.8	7.18
64355.8	344.4	7.23
64359.8	346.0	7.27
64363.8	343.5	7.21
64367.8	340.5	7.15
64371.8	342.0	7.18
64375.8	344.8	7.24
64379.8	343.5	7.21
64383.8	342.3	7.19
64387.8	345.2	7.25
64391.7	346.7	7.28
64395.8	345.8	7.26
64399.8	348.1	7.31
64403.7	348.2	7.31
64407.7	345.8	7.26
64411.7	345.6	7.26
64415.7	346.0	7.27
64419.7	345.1	7.25
64423.7	342.5	7.19
64427.8	338.5	7.11
64431.8	337.7	7.09
64435.7	340.2	7.14
64439.7	341.6	7.17
64443.7	341.4	7.17
64447.7	341.8	7.18
64451.8	342.7	7.20
64455.8	345.0	7.24
64459.8	347.4	7.29
64463.7	350.4	7.36
64467.7	354.9	7.45
64471.7	357.4	7.51
64475.8	355.5	7.46
64479.8	355.6	7.47
64483.7	359.5	7.55
64487.7	362.4	7.61
64491.7	363.0	7.62
64495.7	361.8	7.60
64499.7	358.2	7.52
64503.7	355.4	7.46
64507.7	354.3	7.44
64511.7	354.9	7.45
64515.7	356.5	7.49
64519.7	358.5	7.53
64523.7	359.4	7.55
64527.7	360.8	7.58
64531.7	362.8	7.62
64535.7	366.8	7.70
64539.7	373.6	7.85
64543.7	378.7	7.95
64547.7	378.6	7.95
64551.7	377.6	7.93
64555.7	377.6	7.93
64559.7	377.3	7.92
64563.7	379.7	7.97
64567.7	388.1	8.15
64571.7	392.6	8.25
64575.7	392.7	8.25
64579.7	396.7	8.33
64583.7	401.0	8.42
64587.7	400.9	8.42
64591.7	398.4	8.37
64595.7	394.4	8.28
64599.7	394.4	8.28
64603.7	403.6	8.48
64607.7	414.1	8.70
64611.7	417.6	8.77
64615.7	420.1	8.82
64619.7	424.2	8.91
64623.7	425.5	8.94
64627.7	423.5	8.89
64631.7	422.7	8.88
64635.7	422.9	8.88
64639.7	422.5	8.87
64643.7	421.0	8.84
64647.7	420.3	8.83
64651.7	420.6	8.83
64655.7	423.2	8.89
64659.7	426.4	8.95
64663.6	428.4	9.00
64667.7	429.4	9.02
64671.6	431.3	9.06
64675.7	433.4	9.10
64679.7	435.1	9.14
64683.7	435.5	9.15
64687.7	435.9	9.15
64691.7	435.9	9.15
64695.6	436.7	9.17
64699.7	437.4	9.18
64703.7	437.4	9.18
64707.6	437.7	9.19
64711.7	437.9	9.20
64715.6	436.3	9.16
64719.7	433.5	9.10
64723.6	429.7	9.02
64727.6	427.2	8.97
64731.6	426.9	8.97
64735.6	427.9	8.99
64739.6	428.4	9.00
64743.6	428.9	9.01
64747.6	428.9	9.01
64751.6	428.7	9.00
64755.7	427.7	8.98
64759.7	427.4	8.98
64763.7	428.0	8.99
64767.6	428.0	8.99
64771.7	426.4	8.95
64775.6	424.4	8.91
64779.7	422.6	8.87
64783.6	422.5	8.87
64787.6	423.7	8.90
64791.6	426.2	8.95
64795.6	428.9	9.01
64799.6	424.8	8.92
64803.6	415.5	8.73
64807.6	415.9	8.73
64811.6	423.3	8.89
64815.6	429.2	9.01
64819.6	435.2	9.14
64823.6	441.7	9.28
64827.6	444.8	9.34
64831.6	446.0	9.37
64835.6	445.7	9.36
64839.6	445.0	9.35
64843.6	444.7	9.34
64847.6	445.1	9.35
64851.6	446.2	9.37
64855.6	447.0	9.39
64859.6	446.7	9.38
64863.6	446.5	9.38
64867.6	446.6	9.38
64871.6	447.7	9.40
64875.6	448.4	9.42
64879.6	449.0	9.43
64883.6	449.5	9.44
64887.6	449.9	9.45
64891.6	448.5	9.42
64895.6	445.8	9.36
64899.6	443.1	9.31
64903.6	441.6	9.27
64907.6	440.6	9.25
64911.6	440.6	9.25
64915.6	440.1	9.24
64919.6	439.1	9.22
64923.6	438.2	9.20
64927.6	438.4	9.21
64931.6	438.3	9.21
64935.6	436.6	9.17
64939.6	434.2	9.12
64943.6	433.5	9.10
64947.6	433.5	9.10
64951.6	433.9	9.11
64955.6	433.6	9.11
64959.6	432.5	9.08
64963.6	431.4	9.06
64967.6	431.6	9.06
64971.6	431.8	9.07
64975.6	432.2	9.08
64979.6	432.8	9.09
64983.6	433.4	9.10
64987.6	433.4	9.10
64991.6	433.6	9.11
64995.6	433.4	9.10
64999.6	433.2	9.10
65003.6	433.1	9.10
65007.6	433.5	9.10
65011.6	433.7	9.11
65015.6	436.3	9.16
65019.6	443.2	9.31
65023.6	451.6	9.48
65027.6	456.1	9.58
65031.6	456.3	9.58
65035.6	454.6	9.55
65039.6	454.8	9.55
65043.6	455.9	9.57
65047.6	455.8	9.57
65051.6	453.3	9.52
65055.6	450.6	9.46
65059.6	449.3	9.44
65063.6	448.3	9.41
65067.6	447.3	9.39
65071.6	447.9	9.41
65075.6	447.3	9.39
65079.6	443.9	9.32
65083.6	440.8	9.26
65087.6	442.4	9.29
65091.6	447.4	9.40
65095.6	451.1	9.47
65099.6	452.6	9.50
65103.6	453.8	9.53
65107.6	455.1	9.56
65111.6	457.1	9.60
65115.6	458.7	9.63
65119.6	459.5	9.65
65123.6	459.3	9.64
65127.6	458.5	9.63
65131.6	457.3	9.60
65135.6	455.8	9.57
65139.6	455.1	9.56
65143.6	458.8	9.64
65147.6	465.8	9.78
65151.6	472.1	9.91
65155.6	474.6	9.97
65159.6	474.6	9.97
65163.6	471.9	9.91
65167.6	457.4	9.61
65171.6	432.2	9.08
65175.6	411.4	8.64
65179.6	393.9	8.27
65183.6	389.3	8.18
65187.6	386.9	8.12
65191.6	361.0	7.58
65195.6	354.3	7.44
65199.6	379.8	7.98
65203.6	395.5	8.31
65207.6	405.1	8.51
65211.6	419.6	8.81
65215.6	434.0	9.11
65219.6	444.7	9.34
65223.6	452.8	9.51
65227.6	461.3	9.69
65231.6	471.7	9.91
65235.5	480.6	10.09
65239.6	482.0	10.12
65243.5	479.0	10.06
65247.5	479.2	10.06
65251.5	481.4	10.11
65255.5	483.5	10.15
65259.5	484.7	10.18
65263.5	485.0	10.18
65267.6	485.3	10.19
65271.5	486.3	10.21
65275.5	485.0	10.19
65279.5	478.0	10.04
65283.5	471.1	9.89
65287.5	471.9	9.91
65291.6	468.7	9.84
65295.5	460.3	9.67
65299.5	453.2	9.52
65303.5	446.3	9.37
65307.5	440.5	9.25
65311.5	435.9	9.15
65315.5	429.2	9.01
65319.5	423.3	8.89
65323.5	416.0	8.73
65327.5	401.4	8.43
65331.5	376.0	7.90
65335.5	336.7	7.07
65339.5	292.4	6.14
65343.5	267.4	5.62
65347.5	260.4	5.47
65351.5	259.7	5.45
65355.5	264.7	5.56
65359.5	273.6	5.75
65363.5	283.3	5.95
65367.5	288.6	6.06
65371.5	285.3	5.99
65375.5	279.6	5.87
65379.5	279.0	5.86
65383.5	282.6	5.93
65387.5	284.6	5.98
65391.5	284.4	5.97
65395.5	282.5	5.93
65399.5	281.2	5.91
65403.5	280.9	5.90
65407.5	280.7	5.89
65411.5	279.9	5.88
65415.5	281.2	5.90
65419.5	284.5	5.97
65423.5	285.5	6.00
65427.5	282.9	5.94
65431.5	282.2	5.93
65435.5	287.4	6.03
65439.5	295.2	6.20
65443.5	300.1	6.30
65447.5	302.7	6.36
65451.5	303.2	6.37
65455.5	302.4	6.35
65459.5	302.9	6.36
65463.5	304.9	6.40
65467.5	307.7	6.46
65471.5	311.2	6.54
65475.5	314.0	6.59
65479.5	316.2	6.64
65483.5	316.9	6.65
65487.5	313.3	6.58
65491.5	303.7	6.38
65495.5	289.6	6.08
65499.6	280.3	5.89
65503.5	283.9	5.96
65507.5	288.6	6.06
65511.5	285.5	6.00
65515.5	279.5	5.87
65519.5	276.2	5.80
65523.5	276.6	5.81
65527.5	277.7	5.83
65531.5	279.1	5.86
65535.5	282.9	5.94
65539.5	280.4	5.89
65543.5	268.9	5.65
65547.5	263.0	5.52
65551.5	266.5	5.60
65555.6	268.8	5.64
65559.5	266.8	5.60
65563.5	264.5	5.55
65567.5	263.5	5.53
65571.5	262.2	5.51
65575.5	262.5	5.51
65579.5	265.8	5.58
65583.5	272.9	5.73
65587.5	275.6	5.79
65591.5	267.0	5.61
65595.5	257.2	5.40
65599.5	253.0	5.31
65603.5	250.7	5.26
65607.5	249.0	5.23
65611.5	249.0	5.23
65615.5	250.9	5.27
65619.5	250.2	5.25
65623.5	250.8	5.27
65627.5	253.6	5.33
65631.5	252.8	5.31
65635.5	251.3	5.28
65639.5	253.4	5.32
65643.5	256.5	5.39
65647.5	258.7	5.43
65651.5	259.5	5.45
65655.5	260.4	5.47
65659.5	261.2	5.48
65663.5	272.5	5.72
65667.5	318.4	6.69
65671.5	378.6	7.95
65675.5	404.6	8.50
65679.5	407.1	8.55
65683.5	408.2	8.57
65687.5	406.4	8.53
65691.5	403.7	8.48
65695.5	405.1	8.51
65699.5	408.7	8.58
65703.5	411.1	8.63
65707.5	413.1	8.68
65711.5	419.5	8.81
65715.5	427.1	8.97
65719.5	432.6	9.09
65723.5	436.9	9.18
65727.5	442.0	9.28
65731.5	447.1	9.39
65735.5	449.2	9.43
65739.5	448.0	9.41
65743.5	447.4	9.40
65747.5	446.0	9.37
65751.5	443.6	9.32
65755.5	442.5	9.29
65759.5	444.6	9.34
65763.5	448.1	9.41
65767.5	450.4	9.46
65771.4	447.0	9.39
65775.4	446.3	9.37
65779.5	453.6	9.52
65783.4	458.4	9.63
65787.5	461.6	9.69
65791.4	467.5	9.82
65795.5	469.5	9.86
65799.5	468.6	9.84
65803.5	469.0	9.85
65807.5	472.4	9.92
65811.5	475.8	9.99
65815.5	477.2	10.02
65819.5	476.4	10.00
65823.4	475.9	9.99
65827.4	474.9	9.97
65831.4	475.0	9.98
65835.4	475.2	9.98
65839.4	473.4	9.94
65843.4	471.0	9.89
65847.4	469.6	9.86
65851.4	468.2	9.83
65855.4	467.6	9.82
65859.4	466.2	9.79
65863.4	464.7	9.76
65867.4	463.3	9.73
65871.4	462.7	9.72
65875.4	462.4	9.71
65879.4	463.3	9.73
65883.4	465.2	9.77
65887.4	468.1	9.83
65891.4	470.5	9.88
65895.4	472.6	9.92
65899.4	474.7	9.97
65903.4	476.9	10.02
65907.4	478.7	10.05
65911.4	480.6	10.09
65915.4	482.7	10.14
65919.4	485.6	10.20
65923.4	487.2	10.23
65927.4	488.2	10.25
65931.4	488.3	10.25
65935.4	487.9	10.25
65939.4	488.0	10.25
65943.5	488.3	10.26
65947.4	488.2	10.25
65951.4	488.1	10.25
65955.4	487.4	10.24
65959.4	486.7	10.22
65963.4	482.4	10.13
65967.4	469.0	9.85
65971.4	452.0	9.49
65975.4	444.1	9.33
65979.4	441.7	9.28
65983.4	439.1	9.22
65987.4	435.0	9.14
65991.4	426.5	8.96
65995.4	414.4	8.70
65999.4	409.9	8.61
66003.4	411.5	8.64
66007.4	404.4	8.49
66011.4	390.1	8.19
66015.4	375.4	7.88
66019.4	360.0	7.56
66023.4	350.4	7.36
66027.4	345.2	7.25
66031.4	341.1	7.16
66035.4	336.8	7.07
66039.4	330.4	6.94
66043.4	320.6	6.73
66047.4	316.1	6.64
66051.4	318.2	6.68
66055.4	326.9	6.87
66059.4	342.3	7.19
66063.4	352.0	7.39
66067.4	357.1	7.50
66071.4	366.3	7.69
66075.4	376.5	7.91
66079.4	384.0	8.06
66083.4	389.2	8.17
66087.4	395.0	8.29
66091.4	400.5	8.41
66095.4	406.3	8.53
66099.4	412.2	8.66
66103.4	420.3	8.83
66107.4	427.4	8.97
66111.4	426.3	8.95
66115.4	422.2	8.87
66119.4	423.2	8.89
66123.4	425.3	8.93
66127.4	426.4	8.95
66131.4	423.8	8.90
66135.4	412.3	8.66
66139.4	397.0	8.34
66143.4	387.8	8.14
66147.4	382.3	8.03
66151.4	379.1	7.96
66155.4	376.5	7.91
66159.4	373.2	7.84
66163.4	371.5	7.80
66167.4	373.1	7.84
66171.4	375.7	7.89
66175.4	377.8	7.93
66179.4	379.0	7.96
66183.4	380.1	7.98
66187.4	380.3	7.99
66191.4	381.2	8.01
66195.4	381.4	8.01
66199.4	380.5	7.99
66203.4	379.8	7.98
66207.4	380.1	7.98
66211.4	380.5	7.99
66215.4	383.9	8.06
66219.4	389.0	8.17
66223.4	394.8	8.29
66227.4	400.4	8.41
66231.4	403.1	8.47
66235.4	401.3	8.43
66239.4	398.2	8.36
66243.4	396.4	8.32
66247.4	397.2	8.34
66251.4	397.2	8.34
66255.4	394.2	8.28
66259.4	392.3	8.24
66263.4	393.2	8.26
66267.4	396.9	8.33
66271.4	405.5	8.52
66275.4	412.9	8.67
66279.4	414.5	8.71
66283.4	412.7	8.67
66287.4	411.7	8.65
66291.4	410.6	8.62
66295.4	407.5	8.56
66299.4	402.5	8.45
66303.4	400.6	8.41
66307.4	403.7	8.48
66311.4	408.9	8.59
66315.4	412.1	8.65
66319.4	413.7	8.69
66323.4	415.4	8.72
66327.4	418.0	8.78
66331.4	420.0	8.82
66335.4	421.3	8.85
66339.4	422.0	8.86
66343.4	423.3	8.89
66347.4	424.7	8.92
66351.4	426.8	8.96
66355.4	429.3	9.02
66359.4	433.1	9.10
66363.4	436.3	9.16
66367.4	437.5	9.19
66371.4	435.8	9.15
66375.4	434.2	9.12
66379.4	433.8	9.11
66383.4	434.5	9.12
66387.4	433.4	9.10
66391.4	427.2	8.97
66395.4	417.7	8.77
66399.4	409.0	8.59
66403.4	413.7	8.69
66407.4	430.8	9.05
66411.4	445.9	9.36
66415.4	464.6	9.76
66419.4	478.6	10.05
66423.4	485.5	10.20
66427.4	491.3	10.32
66431.4	494.4	10.38
66435.4	494.5	10.39
66439.3	493.4	10.36
66443.3	492.0	10.33
66447.3	490.2	10.29
66451.3	486.4	10.22
66455.3	484.2	10.17
66459.3	482.4	10.13
66463.3	478.3	10.04
66467.3	472.5	9.92
66471.3	471.9	9.91
66475.3	472.7	9.93
66479.3	465.7	9.78
66483.3	444.3	9.33
66487.3	415.3	8.72
66491.3	403.1	8.46
66495.3	414.6	8.71
66499.3	423.0	8.88
66503.3	417.1	8.76
66507.3	404.5	8.49
66511.3	388.1	8.15
66515.3	378.6	7.95
66519.4	384.5	8.07
66523.3	398.2	8.36
66527.3	415.8	8.73
66531.3	423.3	8.89
66535.3	420.5	8.83
66539.3	425.4	8.93
66543.3	432.8	9.09
66547.3	433.5	9.10
66551.3	432.3	9.08
66555.3	429.1	9.01
66559.3	427.4	8.97
66563.3	429.4	9.02
66567.3	431.2	9.06
66571.3	431.7	9.07
66575.3	429.8	9.02
66579.3	421.5	8.85
66583.3	421.0	8.84
66587.3	430.0	9.03
66591.3	437.5	9.19
66595.3	438.7	9.21
66599.3	433.8	9.11
66603.3	424.3	8.91
66607.3	414.3	8.70
66611.3	409.3	8.60
66615.3	412.9	8.67
66619.3	418.1	8.78
66623.3	419.5	8.81
66627.3	420.9	8.84
66631.3	426.3	8.95
66635.3	430.8	9.05
66639.3	429.7	9.02
66643.3	425.2	8.93
66647.3	422.0	8.86
66651.3	417.4	8.76
66655.3	411.7	8.65
66659.3	406.9	8.54
66663.3	404.1	8.49
66667.3	405.1	8.51
66671.3	409.3	8.60
66675.3	409.9	8.61
66679.3	408.4	8.58
66683.3	407.4	8.56
66687.3	406.6	8.54
66691.3	407.9	8.57
66695.3	409.3	8.59
66699.3	406.9	8.54
66703.3	406.6	8.54
66707.3	409.4	8.60
66711.3	411.9	8.65
66715.3	412.5	8.66
66719.3	413.9	8.69
66723.3	416.0	8.74
66727.3	416.9	8.76
66731.3	416.1	8.74
66735.3	417.6	8.77
66739.3	421.9	8.86
66743.3	424.5	8.91
66747.3	424.6	8.92
66751.3	424.3	8.91
66755.3	424.6	8.92
66759.3	426.5	8.96
66763.3	427.5	8.98
66767.3	427.9	8.99
66771.3	426.9	8.96
66775.3	425.3	8.93
66779.3	424.3	8.91
66783.3	421.9	8.86
66787.3	418.1	8.78
66791.3	415.9	8.73
66795.3	415.3	8.72
66799.3	414.4	8.70
66803.3	412.8	8.67
66807.3	406.3	8.53
66811.3	393.7	8.27
66815.3	391.8	8.23
66819.3	400.3	8.41
66823.3	402.6	8.46
66827.3	399.2	8.38
66831.3	398.5	8.37
66835.3	401.7	8.44
66839.3	406.3	8.53
66843.3	406.3	8.53
66847.3	401.1	8.42
66851.3	396.2	8.32
66855.3	393.4	8.26
66859.3	397.1	8.34
66863.3	406.4	8.53
66867.3	407.3	8.55
66871.3	402.3	8.45
66875.3	399.6	8.39
66879.3	401.2	8.43
66883.3	402.3	8.45
66887.3	397.8	8.35
66891.3	388.8	8.17
66895.3	384.7	8.08
66899.3	387.1	8.13
66903.3	388.6	8.16
66907.3	387.6	8.14
66911.3	392.5	8.24
66915.3	396.0	8.32
66919.3	395.2	8.30
66923.3	395.7	8.31
66927.3	397.8	8.35
66931.3	403.4	8.47
66935.3	407.2	8.55
66939.3	402.7	8.46
66943.3	400.4	8.41
66947.3	403.5	8.47
66951.3	407.5	8.56
66955.3	406.9	8.55
66959.3	403.1	8.47
66963.3	399.9	8.40
66967.3	398.2	8.36
66971.3	397.2	8.34
66975.3	397.5	8.35
66979.3	397.5	8.35
66983.3	397.2	8.34
66987.3	395.3	8.30
66991.3	392.9	8.25
66995.3	390.7	8.21
66999.3	390.7	8.21
67003.3	390.7	8.21
67007.3	393.2	8.26
67011.3	397.3	8.34
67015.3	399.3	8.39
67019.3	403.2	8.47
67023.3	411.7	8.65
67027.3	418.2	8.78
67031.3	420.0	8.82
67035.3	419.4	8.81
67039.3	418.9	8.80
67043.3	418.6	8.79
67047.3	417.8	8.77
67051.3	415.4	8.72
67055.2	413.4	8.68
67059.2	412.8	8.67
67063.2	414.2	8.70
67067.2	416.2	8.74
67071.2	415.4	8.72
67075.2	413.9	8.69
67079.2	414.0	8.69
67083.2	413.0	8.67
67087.2	413.7	8.69
67091.2	417.4	8.76
67095.2	419.2	8.80
67099.2	417.9	8.78
67103.2	415.7	8.73
67107.2	413.5	8.68
67111.2	412.9	8.67
67115.2	412.5	8.66
67119.2	412.2	8.66
67123.2	411.7	8.65
67127.2	411.9	8.65
67131.2	409.5	8.60
67135.2	406.7	8.54
67139.2	403.3	8.47
67143.2	398.9	8.38
67147.2	395.3	8.30
67151.2	389.3	8.18
67155.2	383.6	8.05
67159.2	383.6	8.06
67163.2	384.5	8.07
67167.2	386.3	8.11
67171.2	390.3	8.20
67175.2	394.5	8.29
67179.2	397.2	8.34
67183.2	398.5	8.37
67187.2	401.5	8.43
67191.2	407.6	8.56
67195.2	409.9	8.61
67199.2	409.1	8.59
67203.2	407.5	8.56
67207.2	405.2	8.51
67211.2	402.5	8.45
67215.2	399.8	8.40
67219.2	396.0	8.32
67223.2	392.1	8.23
67227.2	386.9	8.13
67231.2	382.2	8.03
67235.2	378.9	7.96
67239.2	376.7	7.91
67243.2	375.9	7.89
67247.2	377.6	7.93
67251.2	380.9	8.00
67255.2	384.2	8.07
67259.2	386.9	8.12
67263.2	389.6	8.18
67267.2	389.5	8.18
67271.2	387.7	8.14
67275.2	386.4	8.11
67279.2	387.5	8.14
67283.2	390.0	8.19
67287.2	394.1	8.28
67291.2	395.1	8.30
67295.2	393.3	8.26
67299.2	394.3	8.28
67303.2	394.8	8.29
67307.2	394.8	8.29
67311.2	394.1	8.28
67315.2	390.3	8.20
67319.2	390.7	8.20
67323.2	392.9	8.25
67327.2	391.3	8.22
67331.2	387.3	8.13
67335.2	384.8	8.08
67339.2	388.5	8.16
67343.2	398.3	8.37
67347.2	403.9	8.48
67351.2	403.8	8.48
67355.2	403.6	8.48
67359.2	405.5	8.52
67363.2	407.3	8.55
67367.2	404.2	8.49
67371.2	399.6	8.39
67375.2	400.7	8.41
67379.2	400.5	8.41
67383.2	395.9	8.31
67387.2	389.5	8.18
67391.2	384.0	8.06
67395.2	381.0	8.00
67399.2	381.4	8.01
67403.2	386.2	8.11
67407.2	393.1	8.26
67411.2	398.4	8.37
67415.2	403.8	8.48
67419.2	404.9	8.50
67423.2	402.9	8.46
67427.2	405.4	8.51
67431.2	401.4	8.43
67435.2	387.2	8.13
67439.2	376.0	7.90
67443.2	371.2	7.79
67447.2	376.2	7.90
67451.2	378.1	7.94
67455.2	363.8	7.64
67459.2	341.0	7.16
67463.2	319.0	6.70
67467.2	309.3	6.49
67471.2	311.2	6.54
67475.2	318.2	6.68
67479.2	328.1	6.89
67483.2	327.0	6.87
67487.2	312.3	6.56
67491.2	291.2	6.12
67495.2	272.7	5.73
67499.2	262.4	5.51
67503.2	258.5	5.43
67507.2	257.6	5.41
67511.2	258.0	5.42
67515.2	258.9	5.44
67519.2	257.7	5.41
67523.2	253.9	5.33
67527.2	250.5	5.26
67531.2	246.8	5.18
67535.2	244.1	5.13
67539.2	243.2	5.11
67543.2	241.8	5.08
67547.2	240.2	5.04
67551.2	239.4	5.03
67555.2	239.3	5.03
67559.2	239.1	5.02
67563.2	238.2	5.00
67567.2	237.5	4.99
67571.2	237.2	4.98
67575.2	237.3	4.98
67579.2	237.3	4.98
67583.2	237.5	4.99
67587.2	237.5	4.99
67591.2	237.8	4.99
67595.2	238.4	5.01
67599.2	239.3	5.03
67603.2	239.8	5.04
67607.2	240.1	5.04
67611.2	240.3	5.05
67615.2	240.9	5.06
67619.2	241.2	5.07
67623.2	241.5	5.07
67627.2	241.7	5.08
67631.2	241.8	5.08
67635.2	241.6	5.07
67639.2	241.9	5.08
67643.2	242.0	5.08
67647.2	242.4	5.09
67651.2	242.9	5.10
67655.2	244.1	5.13
67659.2	245.4	5.15
67663.2	245.6	5.16
67667.2	245.1	5.15
67671.2	245.2	5.15
67675.1	246.0	5.17
67679.1	248.3	5.21
67683.2	250.1	5.25
67687.2	249.8	5.25
67691.1	247.4	5.20
67695.2	245.5	5.15
67699.1	244.9	5.14
67703.1	245.0	5.14
67707.1	244.4	5.13
67711.1	242.9	5.10
67715.1	241.9	5.08
67719.1	241.9	5.08
67723.1	241.7	5.08
67727.1	241.6	5.07
67731.1	241.5	5.07
67735.1	241.4	5.07
67739.2	241.5	5.07
67743.1	241.6	5.07
67747.1	241.7	5.08
67751.1	241.8	5.08
67755.1	242.0	5.08
67759.1	244.6	5.14
67763.1	247.0	5.19
67767.1	252.0	5.29
67771.1	258.2	5.42
67775.1	255.6	5.37
67779.1	249.0	5.23
67783.1	246.8	5.18
67787.1	257.7	5.41
67791.1	282.6	5.93
67795.1	300.1	6.30
67799.1	301.9	6.34
67803.1	299.9	6.30
67807.1	302.4	6.35
67811.1	306.5	6.44
67815.1	309.9	6.51
67819.1	307.3	6.45
67823.1	299.5	6.29
67827.1	293.9	6.17
67831.1	286.5	6.02
67835.1	280.9	5.90
67839.1	282.9	5.94
67843.1	284.3	5.97
67847.1	284.5	5.97
67851.1	285.8	6.00
67855.1	289.0	6.07
67859.1	291.6	6.12
67863.1	292.8	6.15
67867.1	294.4	6.18
67871.1	308.4	6.48
67875.1	338.6	7.11
67879.1	355.0	7.45
67883.1	347.3	7.29
67887.1	339.1	7.12
67891.1	343.9	7.22
67895.1	354.1	7.44
67899.1	355.5	7.47
67903.1	355.0	7.46
67907.1	357.3	7.50
67911.1	359.4	7.55
67915.1	362.4	7.61
67919.1	367.8	7.72
67923.1	372.4	7.82
67927.1	373.8	7.85
67931.1	377.1	7.92
67935.1	382.1	8.02
67939.1	385.5	8.10
67943.1	390.5	8.20
67947.1	395.1	8.30
67951.1	398.5	8.37
67955.1	399.8	8.40
67959.1	398.8	8.37
67963.1	395.3	8.30
67967.1	395.4	8.30
67971.1	401.6	8.43
67975.1	407.4	8.56
67979.1	409.0	8.59
67983.1	408.2	8.57
67987.1	406.5	8.54
67991.1	407.7	8.56
67995.1	410.3	8.62
67999.1	409.9	8.61
68003.1	407.3	8.55
68007.1	405.1	8.51
68011.1	402.1	8.44
68015.1	391.1	8.21
68019.1	375.6	7.89
68023.1	374.2	7.86
68027.1	381.2	8.01
68031.1	382.4	8.03
68035.1	380.7	8.00
68039.1	382.0	8.02
68043.1	382.3	8.03
68047.1	383.6	8.05
68051.1	384.7	8.08
68055.1	381.2	8.01
68059.1	378.1	7.94
68063.1	378.0	7.94
68067.1	379.3	7.97
68071.1	387.2	8.13
68075.1	401.4	8.43
68079.1	411.1	8.63
68083.1	414.3	8.70
68087.1	416.8	8.75
68091.1	417.5	8.77
68095.1	412.5	8.66
68099.1	404.4	8.49
68103.1	406.3	8.53
68107.1	412.4	8.66
68111.1	413.4	8.68
68115.1	415.7	8.73
68119.1	419.0	8.80
68123.1	417.9	8.78
68127.1	418.0	8.78
68131.1	419.1	8.80
68135.1	417.1	8.76
68139.1	415.6	8.73
68143.1	417.9	8.78
68147.1	420.8	8.84
68151.1	422.9	8.88
68155.1	423.5	8.89
68159.1	423.0	8.88
68163.1	422.5	8.87
68167.1	423.1	8.89
68171.1	423.4	8.89
68175.1	423.2	8.89
68179.1	422.9	8.88
68183.1	422.1	8.86
68187.1	420.7	8.83
68191.1	420.2	8.82
68195.1	420.1	8.82
68199.1	419.9	8.82
68203.1	419.0	8.80
68207.1	418.5	8.79
68211.1	418.0	8.78
68215.1	417.5	8.77
68219.1	416.3	8.74
68223.1	416.6	8.75
68227.1	417.2	8.76
68231.1	417.4	8.76
68235.1	417.3	8.76
68239.1	419.6	8.81
68243.1	425.1	8.93
68247.1	431.7	9.07
68251.1	434.6	9.13
68255.1	432.5	9.08
68259.1	427.5	8.98
68263.1	425.5	8.94
68267.1	426.8	8.96
68271.1	432.4	9.08
68275.1	438.7	9.21
68279.1	438.2	9.20
68283.1	438.0	9.20
68287.1	443.4	9.31
68291.0	447.7	9.40
68295.1	450.9	9.47
68299.1	453.1	9.52
68303.1	454.0	9.53
68307.0	455.0	9.56
68311.0	456.6	9.59
68315.0	457.0	9.60
68319.0	455.8	9.57
68323.0	454.9	9.55
68327.0	456.4	9.59
68331.0	459.2	9.64
68335.1	461.7	9.70
68339.1	463.2	9.73
68343.0	465.8	9.78
68347.1	468.4	9.84
68351.0	470.8	9.89
68355.1	473.1	9.93
68359.0	474.5	9.96
68363.0	473.5	9.94
68367.1	471.6	9.90
68371.1	470.0	9.87
68375.0	470.3	9.88
68379.1	471.9	9.91
68383.0	473.7	9.95
68387.0	472.8	9.93
68391.0	470.1	9.87
68395.0	468.7	9.84
68399.0	468.7	9.84
68403.0	468.8	9.84
68407.0	470.8	9.89
68411.0	473.0	9.93
68415.0	473.4	9.94
68419.0	472.1	9.91
68423.0	471.3	9.90
68427.0	471.3	9.90
68431.0	472.4	9.92
68435.0	472.8	9.93
68439.0	473.9	9.95
68443.0	477.0	10.02
68447.0	480.6	10.09
68451.0	482.1	10.12
68455.0	482.8	10.14
68459.0	483.8	10.16
68463.0	484.8	10.18
68467.0	484.6	10.18
68471.0	485.0	10.18
68475.0	485.2	10.19
68479.0	483.2	10.15
68483.0	480.0	10.08
68487.0	480.6	10.09
68491.0	483.8	10.16
68495.0	485.9	10.20
68499.0	486.2	10.21
68503.0	486.1	10.21
68507.0	484.6	10.18
68511.0	482.3	10.13
68515.0	481.4	10.11
68519.0	482.6	10.13
68523.0	483.5	10.15
68527.0	483.2	10.15
68531.0	482.9	10.14
68535.0	484.1	10.17
68539.0	485.5	10.20
68543.0	486.5	10.22
68547.0	486.9	10.22
68551.0	485.4	10.19
68555.0	481.7	10.12
68559.0	479.8	10.08
68563.0	479.9	10.08
68567.0	479.1	10.06
68571.0	477.2	10.02
68575.0	476.4	10.00
68579.0	475.8	9.99
68583.0	475.5	9.99
68587.0	475.2	9.98
68591.0	475.1	9.98
68595.0	475.2	9.98
68599.0	475.1	9.98
68603.0	474.3	9.96
68607.0	473.4	9.94
68611.0	472.4	9.92
68615.0	472.6	9.93
68619.0	473.5	9.94
68623.0	474.7	9.97
68627.0	475.5	9.99
68631.0	476.3	10.00
68635.0	477.0	10.02
68639.0	477.3	10.02
68643.0	476.7	10.01
68647.0	477.5	10.03
68651.0	480.2	10.08
68655.0	484.4	10.17
68659.0	485.5	10.20
68663.0	483.6	10.16
68667.0	482.7	10.14
68671.0	484.0	10.16
68675.0	483.8	10.16
68679.0	482.5	10.13
68683.0	482.3	10.13
68687.0	483.2	10.15
68691.0	483.3	10.15
68695.0	483.1	10.15
68699.0	483.6	10.16
68703.0	484.6	10.18
68707.0	481.9	10.12
68711.0	477.7	10.03
68715.0	475.9	9.99
68719.0	474.6	9.97
68723.0	471.8	9.91
68727.0	469.5	9.86
68731.0	468.4	9.84
68735.0	469.6	9.86
68739.0	471.5	9.90
68743.0	472.3	9.92
68747.0	471.8	9.91
68751.0	470.5	9.88
68755.0	468.2	9.83
68759.0	466.1	9.79
68763.0	465.5	9.78
68767.0	467.1	9.81
68771.0	466.1	9.79
68775.0	461.6	9.69
68779.0	456.4	9.58
68783.0	453.0	9.51
68787.0	449.3	9.44
68791.0	439.6	9.23
68795.0	421.5	8.85
68799.0	396.5	8.33
68803.0	368.0	7.73
68807.0	348.1	7.31
68811.0	343.2	7.21
68815.0	349.0	7.33
68819.0	354.8	7.45
68823.0	353.9	7.43
68827.0	351.0	7.37
68831.0	349.2	7.33
68835.0	345.3	7.25
68839.0	344.7	7.24
68843.0	349.8	7.35
68847.0	360.1	7.56
68851.0	371.3	7.80
68855.0	377.2	7.92
68859.0	379.4	7.97
68863.0	381.4	8.01
68867.0	382.7	8.04
68871.0	384.1	8.07
68875.0	384.7	8.08
68879.0	383.6	8.06
68883.0	380.4	7.99
68887.0	377.4	7.92
68891.0	375.3	7.88
68895.0	374.7	7.87
68899.0	374.9	7.87
68903.0	375.1	7.88
68907.0	374.2	7.86
68911.0	373.0	7.83
68915.0	371.4	7.80
68919.0	369.8	7.77
68922.9	368.4	7.74
68927.0	367.2	7.71
68931.0	365.9	7.68
68934.9	364.5	7.65
68939.0	362.3	7.61
68943.0	360.5	7.57
68947.0	358.2	7.52
68951.0	354.7	7.45
68955.0	351.5	7.38
68959.0	349.5	7.34
68963.0	347.6	7.30
68966.9	345.9	7.26
68970.9	342.5	7.19
68974.9	339.3	7.13
68978.9	337.8	7.09
68982.9	336.4	7.06
68987.0	334.3	7.02
68990.9	332.8	6.99
68994.9	330.5	6.94
68998.9	326.5	6.86
69002.9	323.2	6.79
69006.9	322.1	6.76
69011.0	321.7	6.76
69014.9	321.8	6.76
69018.9	321.7	6.75
69022.9	321.8	6.76
69026.9	321.9	6.76
69030.9	322.2	6.77
69034.9	322.8	6.78
69038.9	324.4	6.81
69042.9	326.1	6.85
69046.9	326.4	6.85
69050.9	324.3	6.81
69055.0	321.5	6.75
69058.9	319.7	6.71
69062.9	319.4	6.71
69066.9	318.9	6.70
69070.9	317.6	6.67
69074.9	316.0	6.64
69078.9	315.3	6.62
69082.9	314.4	6.60
69086.9	314.1	6.60
69090.9	314.9	6.61
69094.9	319.8	6.72
69098.9	332.3	6.98
69102.9	351.6	7.38
69106.9	371.7	7.81
69110.9	383.7	8.06
69114.9	384.9	8.08
69118.9	384.5	8.07
69122.9	384.8	8.08
69126.9	383.6	8.06
69130.9	380.4	7.99
69134.9	381.0	8.00
69138.9	387.6	8.14
69142.9	392.5	8.24
69146.9	392.3	8.24
69150.9	385.2	8.09
69154.9	370.1	7.77
69158.9	360.9	7.58
69162.9	362.6	7.61
69166.9	367.9	7.73
69170.9	373.7	7.85
69174.9	379.0	7.96
69178.9	375.8	7.89
69182.9	359.2	7.54
69186.9	339.5	7.13
69190.9	332.9	6.99
69194.9	330.5	6.94
69198.9	325.7	6.84
69202.9	326.8	6.86
69206.9	328.0	6.89
69210.9	321.9	6.76
69214.9	318.1	6.68
69218.9	318.0	6.68
69222.9	319.9	6.72
69226.9	322.6	6.77
69230.9	321.5	6.75
69234.9	318.0	6.68
69238.9	317.2	6.66
69242.9	318.1	6.68
69246.9	320.7	6.73
69250.9	322.7	6.78
69254.9	323.5	6.79
69258.9	323.6	6.80
69262.9	323.5	6.79
69266.9	323.3	6.79
69270.9	322.9	6.78
69274.9	322.1	6.76
69278.9	322.6	6.77
69282.9	323.8	6.80
69286.9	326.1	6.85
69290.9	329.2	6.91
69294.9	333.4	7.00
69298.9	337.7	7.09
69302.9	343.3	7.21
69306.9	352.1	7.39
69310.9	361.7	7.59
69314.9	367.5	7.72
69318.9	371.9	7.81
69322.9	377.3	7.92
69326.9	381.7	8.02
69330.9	386.8	8.12
69334.9	394.6	8.29
69338.9	402.1	8.44
69342.9	409.5	8.60
69346.9	415.6	8.73
69350.9	420.2	8.82
69354.9	422.1	8.86
69358.9	421.7	8.86
69362.9	420.4	8.83
69366.9	419.8	8.82
69370.9	419.6	8.81
69374.9	420.0	8.82
69378.9	419.8	8.82
69382.9	420.0	8.82
69386.9	420.5	8.83
69390.9	420.8	8.84
69394.9	419.7	8.81
69398.9	418.8	8.79
69402.9	418.4	8.79
69406.9	418.4	8.79
69410.9	417.3	8.76
69414.9	416.4	8.74
69418.9	416.1	8.74
69422.9	415.8	8.73
69426.9	415.3	8.72
69430.9	415.6	8.73
69434.9	414.9	8.71
69438.9	413.6	8.69
69442.9	413.2	8.68
69446.9	413.7	8.69
69450.9	413.1	8.68
69454.9	412.0	8.65
69458.9	411.6	8.64
69462.9	411.8	8.65
69466.9	411.4	8.64
69470.9	411.4	8.64
69474.9	411.5	8.64
69478.9	411.7	8.65
69482.9	411.7	8.65
69486.9	411.9	8.65
69490.9	411.7	8.64
69494.9	411.6	8.64
69498.8	411.5	8.64
69502.8	411.6	8.64
69506.8	411.8	8.65
69510.8	412.7	8.67
69514.9	413.2	8.68
69518.9	413.9	8.69
69522.8	414.2	8.70
69526.8	416.2	8.74
69530.8	418.8	8.79
69534.8	420.0	8.82
69538.9	419.3	8.80
69542.9	418.8	8.80
69546.8	418.7	8.79
69550.8	419.8	8.82
69554.8	421.3	8.85
69558.9	421.8	8.86
69562.8	421.0	8.84
69566.8	420.6	8.83
69570.8	420.7	8.83
69574.8	421.5	8.85
69578.8	422.2	8.87
69582.8	422.9	8.88
69586.8	423.5	8.89
69590.8	424.7	8.92
69594.8	426.8	8.96
69598.8	430.6	9.04
69602.8	434.7	9.13
69606.8	437.3	9.18
69610.8	439.0	9.22
69614.8	439.8	9.24
69618.8	433.2	9.10
69622.8	422.0	8.86
69626.8	415.0	8.72
69630.9	410.9	8.63
69634.8	409.2	8.59
69638.8	414.8	8.71
69642.8	410.2	8.61
69646.8	394.4	8.28
69650.8	387.9	8.15
69654.8	386.9	8.12
69658.8	382.5	8.03
69662.8	378.5	7.95
69666.8	373.8	7.85
69670.8	368.1	7.73
69674.8	363.1	7.63
69678.8	362.1	7.60
69682.8	362.8	7.62
69686.8	362.2	7.61
69690.8	355.6	7.47
69694.8	341.6	7.17
69698.8	328.7	6.90
69702.8	326.7	6.86
69706.8	338.2	7.10
69710.8	356.9	7.50
69714.8	366.3	7.69
69718.8	359.8	7.56
69722.8	347.6	7.30
69726.8	347.3	7.29
69730.8	355.5	7.46
69734.8	360.8	7.58
69738.8	368.3	7.73
69742.8	382.1	8.02
69746.8	398.8	8.37
69750.8	422.2	8.87
69754.8	441.2	9.26
69758.8	439.4	9.23
69762.8	429.1	9.01
69766.8	435.1	9.14
69770.8	451.3	9.48
69774.8	460.0	9.66
69778.8	461.7	9.70
69782.8	462.8	9.72
69786.8	463.7	9.74
69790.8	463.7	9.74
69794.8	463.1	9.73
69798.8	465.0	9.77
69802.8	467.2	9.81
69806.8	468.7	9.84
69810.8	469.7	9.86
69814.8	470.4	9.88
69818.8	470.9	9.89
69822.8	472.0	9.91
69826.8	472.3	9.92
69830.8	471.0	9.89
69834.8	468.5	9.84
69838.8	467.9	9.83
69842.8	467.1	9.81
69846.8	464.6	9.76
69850.8	461.9	9.70
69854.8	458.4	9.63
69858.8	452.5	9.50
69862.8	451.3	9.48
69866.8	455.3	9.56
69870.8	458.3	9.62
69874.8	457.5	9.61
69878.8	456.2	9.58
69882.8	455.8	9.57
69886.8	457.3	9.60
69890.8	459.7	9.65
69894.8	463.3	9.73
69898.8	466.1	9.79
69902.8	468.4	9.84
69906.8	468.9	9.85
69910.8	468.3	9.84
69914.8	467.3	9.81
69918.8	465.9	9.78
69922.8	462.8	9.72
69926.8	459.2	9.64
69930.8	457.6	9.61
69934.8	458.7	9.63
69938.8	458.6	9.63
69942.8	455.7	9.57
69946.8	450.2	9.45
69950.8	445.4	9.35
69954.8	438.8	9.21
69958.8	420.3	8.83
69962.8	395.0	8.29
69966.8	384.3	8.07
69970.8	387.1	8.13
69974.8	392.9	8.25
69978.8	401.4	8.43
69982.8	409.8	8.61
69986.8	413.0	8.67
69990.8	413.4	8.68
69994.8	412.2	8.66
69998.8	411.1	8.63
70002.8	411.5	8.64
70006.8	410.2	8.62
70010.8	403.3	8.47
70014.8	395.4	8.30
70018.8	392.4	8.24
70022.8	394.8	8.29
70026.8	396.7	8.33
70030.8	400.6	8.41
70034.8	409.6	8.60
70038.8	414.5	8.71
70042.8	410.3	8.62
70046.8	406.0	8.53
70050.8	407.1	8.55
70054.8	410.3	8.62
70058.8	413.0	8.67
70062.8	416.0	8.74
70066.8	417.4	8.77
70070.8	420.8	8.84
70074.8	433.6	9.11
70078.8	442.3	9.29
70082.8	435.5	9.14
70086.8	436.0	9.16
70090.8	445.9	9.36
70094.8	452.4	9.50
70098.8	456.1	9.58
70102.8	460.8	9.68
70106.8	467.4	9.81
70110.8	472.6	9.92
70114.8	474.4	9.96
70118.8	476.2	10.00
70122.8	476.2	10.00
70126.8	476.4	10.00
70130.8	478.8	10.05
70134.8	480.4	10.09
70138.8	477.8	10.03
70142.7	471.8	9.91
70146.7	466.2	9.79
70150.8	464.6	9.76
70154.7	467.1	9.81
70158.8	473.5	9.94
70162.8	478.2	10.04
70166.7	478.2	10.04
70170.8	475.3	9.98
70174.8	470.7	9.88
70178.8	463.4	9.73
70182.7	453.9	9.53
70186.8	446.8	9.38
70190.7	448.7	9.42
70194.7	450.2	9.46
70198.7	449.4	9.44
70202.7	450.8	9.47
70206.7	446.3	9.37
70210.7	437.2	9.18
70214.7	431.6	9.06
70218.7	426.6	8.96
70222.8	423.1	8.89
70226.8	420.1	8.82
70230.7	422.8	8.88
70234.7	432.7	9.09
70238.7	436.1	9.16
70242.7	432.1	9.07
70246.7	427.5	8.98
70250.7	416.7	8.75
70254.7	403.3	8.47
70258.7	396.6	8.33
70262.7	397.1	8.34
70266.7	400.1	8.40
70270.7	404.0	8.48
70274.7	407.0	8.55
70278.8	408.0	8.57
70282.7	408.2	8.57
70286.7	409.8	8.61
70290.7	412.1	8.65
70294.7	413.4	8.68
70298.7	417.3	8.76
70302.7	424.6	8.92
70306.7	424.0	8.90
70310.7	421.0	8.84
70314.7	425.1	8.93
70318.7	430.5	9.04
70322.7	430.3	9.04
70326.7	425.7	8.94
70330.7	419.2	8.80
70334.7	400.9	8.42
70338.7	364.3	7.65
70342.7	337.3	7.08
70346.7	335.4	7.04
70350.7	339.4	7.13
70354.7	340.0	7.14
70358.7	343.1	7.20
70362.7	342.3	7.19
70366.7	355.2	7.46
70370.7	390.1	8.19
70374.7	413.5	8.68
70378.7	416.8	8.75
70382.7	413.2	8.68
70386.7	409.1	8.59
70390.8	411.2	8.63
70394.7	416.0	8.74
70398.7	419.0	8.80
70402.8	419.7	8.81
70406.7	405.5	8.52
70410.7	388.5	8.16
70414.7	399.8	8.40
70418.7	409.8	8.61
70422.7	379.3	7.97
70426.7	331.7	6.97
70430.7	303.2	6.37
70434.7	284.7	5.98
70438.8	285.7	6.00
70442.7	328.7	6.90
70446.7	369.2	7.75
70450.7	362.7	7.62
70454.7	332.7	6.99
70458.7	317.4	6.67
70462.7	309.1	6.49
70466.7	294.2	6.18
70470.7	288.4	6.06
70474.7	288.4	6.06
70478.7	282.8	5.94
70482.7	277.7	5.83
70486.7	314.6	6.61
70490.7	356.6	7.49
70494.7	323.9	6.80
70498.7	289.8	6.09
70502.7	281.9	5.92
70506.7	246.2	5.17
70510.7	221.5	4.65
70514.7	220.6	4.63
70518.7	220.8	4.64
70522.7	221.3	4.65
70526.7	233.5	4.90
70530.7	259.8	5.46
70534.7	271.7	5.71
70538.7	254.2	5.34
70542.7	234.0	4.91
70546.7	232.5	4.88
70550.7	237.1	4.98
70554.7	232.9	4.89
70558.7	225.7	4.74
70562.7	223.5	4.69
70566.7	225.2	4.73
70570.7	226.0	4.75
70574.7	226.4	4.75
70578.7	228.8	4.80
70582.7	234.4	4.92
70586.7	240.1	5.04
70590.7	242.0	5.08
70594.7	241.4	5.07
70598.7	242.6	5.09
70602.7	246.8	5.18
70606.7	249.5	5.24
70610.7	249.7	5.24
70614.7	247.0	5.19
70618.7	239.1	5.02
70622.7	235.1	4.94
70626.7	235.6	4.95
70630.7	236.9	4.97
70634.7	238.2	5.00
70638.7	242.0	5.08
70642.7	247.9	5.21
70646.7	250.8	5.27
70650.7	250.3	5.26
70654.7	249.6	5.24
70658.7	246.5	5.18
70662.7	245.6	5.16
70666.7	254.5	5.35
70670.7	267.2	5.61
70674.7	268.0	5.63
70678.7	254.8	5.35
70682.7	245.9	5.16
70686.7	256.0	5.38
70690.7	267.1	5.61
70694.7	262.8	5.52
70698.7	256.3	5.38
70702.7	261.7	5.50
70706.7	273.2	5.74
70710.7	278.5	5.85
70714.7	277.8	5.83
70718.7	277.4	5.82
70722.7	272.5	5.72
70726.7	258.3	5.43
70730.7	242.7	5.10
70734.7	240.3	5.05
70738.7	247.7	5.20
70742.7	253.9	5.33
70746.7	259.9	5.46
70750.7	269.1	5.65
70754.7	275.0	5.78
70758.7	275.8	5.79
70762.7	275.8	5.79
70766.7	277.0	5.82
70770.7	277.9	5.84
70774.7	277.5	5.83
70778.7	276.7	5.81
70782.7	276.3	5.80
70786.7	276.0	5.80
70790.7	276.1	5.80
70794.7	276.1	5.80
70798.7	277.0	5.82
70802.7	278.6	5.85
70806.7	280.0	5.88
70810.7	280.1	5.88
70814.7	279.0	5.86
70818.7	277.1	5.82
70822.7	275.9	5.79
70826.6	275.4	5.78
70830.7	276.0	5.80
70834.6	277.1	5.82
70838.6	278.0	5.84
70842.7	278.1	5.84
70846.7	277.5	5.83
70850.7	275.7	5.79
70854.7	275.4	5.78
70858.6	276.3	5.80
70862.7	278.1	5.84
70866.7	279.0	5.86
70870.7	276.3	5.80
70874.7	271.2	5.70
70878.6	268.8	5.64
70882.7	268.4	5.64
70886.7	268.7	5.64
70890.6	269.8	5.67
70894.7	272.0	5.71
70898.7	273.2	5.74
70902.7	273.1	5.74
70906.7	272.9	5.73
70910.6	274.8	5.77
70914.6	277.3	5.82
70918.6	279.0	5.86
70922.7	279.3	5.87
70926.6	279.2	5.86
70930.6	279.2	5.86
70934.6	278.2	5.84
70938.6	277.3	5.82
70942.7	278.6	5.85
70946.6	277.1	5.82
70950.7	277.2	5.82
70954.7	284.5	5.97
70958.7	292.7	6.15
70962.7	297.9	6.26
70966.7	300.6	6.31
70970.7	302.7	6.36
70974.7	306.4	6.44
70978.6	307.3	6.45
70982.7	305.8	6.42
70986.7	303.7	6.38
70990.7	302.8	6.36
70994.7	302.4	6.35
70998.7	301.2	6.33
71002.7	300.1	6.30
71006.7	300.1	6.30
71010.7	300.2	6.30
71014.7	299.9	6.30
71018.7	297.5	6.25
71022.6	294.9	6.19
71026.7	294.5	6.18
71030.7	294.6	6.19
71034.7	294.0	6.17
71038.7	294.4	6.18
71042.6	293.5	6.16
71046.6	288.5	6.06
71050.7	281.0	5.90
71054.6	275.6	5.79
71058.6	272.7	5.73
71062.7	272.4	5.72
71066.6	272.2	5.72
71070.7	266.4	5.59
71074.7	251.1	5.27
71078.6	239.7	5.03
71082.6	237.4	4.99
71086.6	234.7	4.93
71090.6	230.0	4.83
71094.7	227.0	4.77
71098.7	227.1	4.77
71102.7	229.9	4.83
71106.7	231.4	4.86
71110.6	231.8	4.87
71114.6	232.7	4.89
71118.7	233.3	4.90
71122.6	232.7	4.89
71126.6	231.9	4.87
71130.6	231.6	4.86
71134.7	232.2	4.88
71138.7	232.4	4.88
71142.7	231.7	4.87
71146.6	231.7	4.87
71150.7	236.3	4.96
71154.6	245.2	5.15
71158.6	253.2	5.32
71162.7	257.0	5.40
71166.7	256.8	5.39
71170.6	256.1	5.38
71174.7	266.0	5.59
71178.6	284.0	5.96
71182.6	294.9	6.19
71186.6	297.2	6.24
71190.6	298.1	6.26
71194.7	297.6	6.25
71198.6	297.1	6.24
71202.6	297.5	6.25
71206.7	297.9	6.26
71210.6	297.5	6.25
71214.6	297.3	6.24
71218.6	296.7	6.23
71222.6	296.0	6.22
71226.6	295.4	6.20
71230.6	295.5	6.21
71234.6	295.6	6.21
71238.6	297.5	6.25
71242.6	303.6	6.38
71246.6	306.6	6.44
71250.6	303.6	6.38
71254.6	304.6	6.40
71258.6	307.1	6.45
71262.6	307.0	6.45
71266.6	305.1	6.41
71270.6	300.5	6.31
71274.6	294.5	6.18
71278.6	289.5	6.08
71282.6	285.0	5.99
71286.6	282.8	5.94
71290.6	281.9	5.92
71294.6	281.4	5.91
71298.7	280.8	5.90
71302.6	280.3	5.89
71306.6	279.8	5.88
71310.6	279.8	5.88
71314.6	280.2	5.88
71318.6	280.8	5.90
71322.6	280.7	5.89
71326.6	280.7	5.89
71330.6	280.9	5.90
71334.6	281.4	5.91
71338.6	281.0	5.90
71342.6	280.4	5.89
71346.6	279.3	5.87
71350.6	279.0	5.86
71354.6	278.8	5.86
71358.6	278.9	5.86
71362.6	278.3	5.84
71366.6	278.0	5.84
71370.6	277.9	5.84
71374.6	277.9	5.84
71378.6	277.9	5.83
71382.6	278.0	5.84
71386.6	278.3	5.84
71390.6	279.6	5.87
71394.6	280.6	5.89
71398.6	281.0	5.90
71402.6	280.9	5.90
71406.6	280.4	5.89
71410.6	279.4	5.87
71414.6	278.8	5.86
71418.6	279.0	5.86
71422.6	279.4	5.87
71426.6	278.6	5.85
71430.6	278.1	5.84
71434.6	278.9	5.86
71438.6	280.5	5.89
71442.6	281.7	5.92
71446.6	280.9	5.90
71450.6	277.8	5.83
71454.6	277.0	5.82
71458.6	278.8	5.86
71462.6	278.8	5.86
71466.6	276.1	5.80
71470.5	275.6	5.79
71474.6	276.7	5.81
71478.6	276.8	5.81
71482.6	276.6	5.81
71486.6	275.5	5.79
71490.6	273.2	5.74
71494.6	274.4	5.76
71498.6	278.1	5.84
71502.6	278.5	5.85
71506.6	273.8	5.75
71510.6	271.9	5.71
71514.6	276.2	5.80
71518.6	282.3	5.93
71522.6	286.0	6.01
71526.6	286.3	6.01
71530.6	282.1	5.92
71534.6	279.3	5.87
71538.6	279.3	5.87
71542.6	279.7	5.87
71546.6	280.0	5.88
71550.6	280.3	5.89
71554.6	284.2	5.97
71558.6	291.5	6.12
71562.6	293.6	6.17
71566.6	295.1	6.20
71570.6	299.2	6.28
71574.6	302.0	6.34
71578.6	302.4	6.35
71582.6	301.1	6.32
71586.6	299.3	6.29
71590.6	300.2	6.31
71594.6	303.1	6.37
71598.6	305.8	6.42
71602.6	303.8	6.38
71606.6	293.7	6.17
71610.6	280.5	5.89
71614.6	275.3	5.78
71618.6	275.3	5.78
71622.6	280.4	5.89
71626.6	292.0	6.13
71630.6	301.3	6.33
71634.5	305.3	6.41
71638.6	305.1	6.41
71642.6	300.4	6.31
71646.6	293.5	6.16
71650.6	287.3	6.03
71654.6	287.6	6.04
71658.6	292.3	6.14
71662.6	296.0	6.22
71666.6	298.5	6.27
71670.6	300.5	6.31
71674.6	300.2	6.30
71678.6	300.3	6.31
71682.6	302.5	6.35
71686.5	305.8	6.42
71690.6	308.7	6.48
71694.6	309.9	6.51
71698.6	309.6	6.50
71702.6	312.1	6.55
71706.6	318.2	6.68
71710.6	323.8	6.80
71714.6	325.3	6.83
71718.6	323.2	6.79
71722.6	321.1	6.74
71726.6	319.0	6.70
71730.6	315.1	6.62
71734.6	313.2	6.58
71738.6	312.9	6.57
71742.6	309.5	6.50
71746.6	303.1	6.36
71750.6	300.5	6.31
71754.6	302.6	6.35
71758.6	304.3	6.39
71762.6	302.3	6.35
71766.6	300.0	6.30
71770.6	299.9	6.30
71774.5	302.8	6.36
71778.6	307.2	6.45
71782.5	310.9	6.53
71786.6	310.9	6.53
71790.6	308.6	6.48
71794.6	306.3	6.43
71798.5	305.5	6.42
71802.5	305.6	6.42
71806.5	305.8	6.42
71810.6	306.1	6.43
71814.5	306.8	6.44
71818.5	306.5	6.44
71822.5	306.1	6.43
71826.5	305.6	6.42
71830.5	304.6	6.40
71834.6	302.8	6.36
71838.6	301.7	6.34
71842.5	302.5	6.35
71846.5	305.7	6.42
71850.5	307.4	6.45
71854.5	308.1	6.47
71858.5	309.1	6.49
71862.5	309.6	6.50
71866.5	309.1	6.49
71870.5	309.1	6.49
71874.5	306.1	6.43
71878.5	298.7	6.27
71882.5	292.7	6.15
71886.5	290.9	6.11
71890.5	290.2	6.09
71894.5	295.2	6.20
71898.5	304.0	6.38
71902.5	306.3	6.43
71906.5	306.1	6.43
71910.5	309.8	6.51
71914.5	312.7	6.57
71918.5	316.0	6.64
71922.5	318.3	6.68
71926.5	317.0	6.66
71930.5	313.4	6.58
71934.5	312.4	6.56
71938.5	312.5	6.56
71942.5	311.5	6.54
71946.5	310.1	6.51
71950.5	309.4	6.50
71954.5	309.1	6.49
71958.5	306.4	6.43
71962.5	301.9	6.34
71966.5	303.9	6.38
71970.5	309.2	6.49
71974.5	310.7	6.52
71978.5	309.5	6.50
71982.5	309.1	6.49
71986.5	308.9	6.49
71990.5	308.7	6.48
71994.5	308.4	6.48
71998.5	308.4	6.48
72002.5	308.5	6.48
72006.5	308.8	6.48
72010.5	308.1	6.47
72014.5	307.0	6.45
72018.5	305.6	6.42
72022.5	305.0	6.40
72026.5	304.6	6.40
72030.5	304.4	6.39
72034.5	304.0	6.38
72038.5	303.9	6.38
72042.5	303.7	6.38
72046.5	303.9	6.38
72050.5	304.3	6.39
72054.5	304.4	6.39
72058.5	303.7	6.38
72062.5	303.0	6.36
72066.5	302.0	6.34
72070.5	301.8	6.34
72074.5	302.2	6.35
72078.5	303.2	6.37
72082.5	305.1	6.41
72086.5	308.6	6.48
72090.5	311.9	6.55
72094.5	312.4	6.56
72098.5	310.6	6.52
72102.5	309.8	6.50
72106.4	310.4	6.52
72110.5	313.3	6.58
72114.4	316.7	6.65
72118.5	319.1	6.70
72122.5	320.1	6.72
72126.5	320.3	6.73
72130.5	319.7	6.71
72134.5	317.8	6.67
72138.5	314.0	6.59
72142.5	311.1	6.53
72146.5	306.4	6.43
72150.5	289.7	6.08
72154.4	276.3	5.80
72158.5	289.9	6.09
72162.5	306.2	6.43
72166.5	309.5	6.50
72170.4	309.2	6.49
72174.4	307.9	6.47
72178.4	305.0	6.41
72182.5	301.6	6.33
72186.4	300.7	6.31
72190.5	302.4	6.35
72194.5	303.1	6.37
72198.4	302.7	6.36
72202.5	303.9	6.38
72206.4	307.6	6.46
72210.4	311.5	6.54
72214.5	315.3	6.62
72218.5	317.2	6.66
72222.5	319.7	6.71
72226.5	323.6	6.79
72230.4	326.0	6.85
72234.4	327.5	6.88
72238.4	329.5	6.92
72242.4	330.4	6.94
72246.4	329.3	6.92
72250.5	328.3	6.90
72254.4	328.4	6.90
72258.4	325.5	6.84
72262.5	323.6	6.79
72266.4	326.2	6.85
72270.4	330.3	6.94
72274.4	325.6	6.84
72278.4	314.4	6.60
72282.4	309.5	6.50
72286.5	311.3	6.54
72290.5	311.3	6.54
72294.4	310.7	6.53
72298.5	313.8	6.59
72302.4	321.1	6.74
72306.5	325.2	6.83
72310.4	325.4	6.83
72314.4	326.9	6.87
72318.4	329.1	6.91
72322.4	326.1	6.85
72326.4	316.7	6.65
72330.4	305.1	6.41
72334.4	304.5	6.39
72338.4	315.9	6.63
72342.4	320.8	6.74
72346.4	314.1	6.60
72350.5	305.2	6.41
72354.4	299.0	6.28
72358.4	300.9	6.32
72362.4	300.7	6.31
72366.4	287.6	6.04
72370.4	271.8	5.71
72374.4	261.0	5.48
72378.4	247.0	5.19
72382.4	248.7	5.22
72386.4	275.1	5.78
72390.4	291.3	6.12
72394.4	287.6	6.04
72398.4	276.6	5.81
72402.4	263.7	5.54
72406.4	262.4	5.51
72410.4	270.4	5.68
72414.4	277.2	5.82
72418.4	281.7	5.92
72422.4	286.6	6.02
72426.4	290.5	6.10
72430.4	292.2	6.14
72434.4	292.6	6.14
72438.4	294.2	6.18
72442.4	296.7	6.23
72446.4	296.1	6.22
72450.4	290.5	6.10
72454.4	286.4	6.01
72458.4	283.6	5.96
72462.4	281.0	5.90
72466.4	280.0	5.88
72470.4	278.0	5.84
72474.4	274.4	5.76
72478.4	271.8	5.71
72482.4	268.3	5.63
72486.4	267.7	5.62
72490.4	271.7	5.71
72494.4	268.2	5.63
72498.4	259.9	5.46
72502.4	258.2	5.42
72506.4	252.5	5.30
72510.4	240.9	5.06
72514.4	232.4	4.88
72518.4	229.4	4.82
72522.4	228.3	4.79
72526.4	225.4	4.73
72530.4	221.3	4.65
72534.4	217.3	4.56
72538.4	210.6	4.42
72542.4	202.9	4.26
72546.4	197.7	4.15
72550.4	194.5	4.08
72554.4	191.5	4.02
72558.4	187.7	3.94
72562.4	182.5	3.83
72566.4	178.2	3.74
72570.4	176.3	3.70
72574.4	176.1	3.70
72578.4	176.2	3.70
72582.4	176.4	3.70
72586.4	176.7	3.71
72590.4	178.2	3.74
72594.4	181.8	3.82
72598.4	188.3	3.95
72602.4	195.1	4.10
72606.4	199.2	4.18
72610.4	201.0	4.22
72614.4	202.3	4.25
72618.4	206.5	4.34
72622.4	210.7	4.42
72626.4	205.0	4.31
72630.4	198.4	4.17
72634.4	198.4	4.17
72638.4	194.1	4.08
72642.4	183.7	3.86
72646.4	176.9	3.71
72650.4	172.5	3.62
72654.4	164.5	3.45
72658.4	154.6	3.25
72662.4	150.1	3.15
72666.4	147.6	3.10
72670.4	142.3	2.99
72674.4	135.4	2.84
72678.4	129.4	2.72
72682.4	125.4	2.63
72686.4	123.6	2.59
72690.4	122.2	2.57
72694.4	121.1	2.54
72698.4	120.4	2.53
72702.4	120.0	2.52
72706.3	118.4	2.49
72710.4	115.9	2.43
72714.3	114.0	2.39
72718.3	113.8	2.39
72722.4	114.4	2.40
72726.3	115.5	2.43
72730.3	117.0	2.46
72734.4	117.5	2.47
72738.3	117.3	2.46
72742.4	118.3	2.48
72746.3	120.0	2.52
72750.4	121.3	2.55
72754.4	122.0	2.56
72758.3	122.1	2.56
72762.4	121.8	2.56
72766.4	119.4	2.51
72770.3	115.2	2.42
72774.4	114.4	2.40
72778.4	115.4	2.42
72782.3	114.5	2.40
72786.3	113.5	2.38
72790.3	113.9	2.39
72794.3	114.8	2.41
72798.3	114.6	2.41
72802.3	113.1	2.37
72806.3	112.8	2.37
72810.3	113.0	2.37
72814.3	112.7	2.37
72818.3	112.5	2.36
72822.3	111.9	2.35
72826.3	111.7	2.35
72830.3	113.1	2.37
72834.3	114.3	2.40
72838.3	114.5	2.41
72842.3	114.5	2.40
72846.3	114.4	2.40
72850.3	113.6	2.39
72854.3	112.6	2.36
72858.3	111.7	2.35
72862.3	111.3	2.34
72866.3	110.8	2.33
72870.3	111.2	2.33
72874.3	112.7	2.37
72878.3	114.0	2.39
72882.3	114.3	2.40
72886.3	114.3	2.40
72890.3	114.3	2.40
72894.3	114.4	2.40
72898.3	114.6	2.41
72902.3	114.8	2.41
72906.3	115.2	2.42
72910.3	115.8	2.43
72914.3	113.1	2.38
72918.3	106.8	2.24
72922.3	102.3	2.15
72926.3	100.0	2.10
72930.3	98.0	2.06
72934.3	96.2	2.02
72938.3	93.4	1.96
72942.3	91.3	1.92
72946.3	89.8	1.89
72950.3	87.7	1.84
72954.3	85.8	1.80
72958.3	84.3	1.77
72962.3	81.0	1.70
72966.3	77.7	1.63
72970.3	77.5	1.63
72974.3	77.9	1.64
72978.3	77.7	1.63
72982.3	77.9	1.64
72986.3	77.4	1.62
72990.3	77.3	1.62
72994.3	78.9	1.66
72998.3	78.6	1.65
73002.3	75.1	1.58
73006.3	71.5	1.50
73010.3	68.5	1.44
73014.3	66.4	1.39
73018.3	64.4	1.35
73022.3	61.8	1.30
73026.3	59.8	1.26
73030.3	58.4	1.23
73034.3	57.0	1.20
73038.3	55.9	1.17
73042.3	54.7	1.15
73046.3	53.8	1.13
73050.3	55.0	1.16
73054.3	58.6	1.23
73058.3	62.2	1.31
73062.3	63.7	1.34
73066.3	63.7	1.34
73070.3	64.6	1.36
73074.3	71.2	1.49
73078.3	81.9	1.72
73082.3	89.2	1.87
73086.3	104.1	2.19
73090.3	129.5	2.72
73094.3	147.7	3.10
73098.3	151.6	3.18
73102.3	132.3	2.78
73106.3	97.8	2.05
73110.3	77.3	1.62
73114.3	71.9	1.51
73118.3	71.4	1.50
73122.3	72.1	1.51
73126.3	70.3	1.48
73130.3	66.7	1.40
73134.3	64.1	1.35
73138.3	63.2	1.33
73142.3	62.5	1.31
73146.3	60.6	1.27
73150.3	58.9	1.24
73154.3	58.7	1.23
73158.3	60.1	1.26
73162.2	61.4	1.29
73166.2	61.6	1.29
73170.3	61.5	1.29
73174.2	61.7	1.30
73178.3	62.2	1.31
73182.3	62.2	1.31
73186.3	61.8	1.30
73190.3	61.6	1.29
73194.3	61.3	1.29
73198.3	61.0	1.28
73202.3	61.1	1.28
73206.3	59.9	1.26
73210.3	58.1	1.22
73214.2	57.4	1.21
73218.2	56.8	1.19
73222.2	56.7	1.19
73226.3	57.7	1.21
73230.2	59.2	1.24
73234.2	61.0	1.28
73238.2	61.8	1.30
73242.2	62.1	1.31
73246.2	62.7	1.32
73250.2	62.9	1.32
73254.2	62.9	1.32
73258.2	62.7	1.32
73262.2	62.5	1.31
73266.2	61.9	1.30
73270.2	60.5	1.27
73274.2	58.6	1.23
73278.2	55.7	1.17
73282.2	52.4	1.10
73286.2	51.5	1.08
73290.2	53.5	1.12
73294.2	55.2	1.16
73298.2	54.1	1.14
73302.2	53.1	1.12
73306.2	53.4	1.12
73310.2	54.3	1.14
73314.2	55.6	1.17
73318.2	55.1	1.16
73322.2	52.4	1.10
73326.2	50.7	1.06
73330.2	51.1	1.07
73334.2	52.2	1.10
73338.2	52.4	1.10
73342.2	52.0	1.09
73346.2	52.2	1.10
73350.2	52.7	1.11
73354.2	52.9	1.11
73358.2	53.1	1.11
73362.2	53.1	1.12
73366.2	53.2	1.12
73370.2	53.2	1.12
73374.2	52.5	1.10
73378.2	51.2	1.08
73382.2	50.2	1.05
73386.2	50.6	1.06
73390.2	53.5	1.12
73394.2	56.9	1.19
73398.2	57.2	1.20
73402.2	55.0	1.16
73406.2	53.4	1.12
73410.2	54.0	1.13
73414.2	56.3	1.18
73418.2	58.2	1.22
73422.2	59.1	1.24
73426.2	60.4	1.27
73430.2	62.4	1.31
73434.2	63.2	1.33
73438.2	62.7	1.32
73442.2	62.3	1.31
73446.2	62.4	1.31
73450.2	63.2	1.33
73454.2	63.8	1.34
73458.2	63.7	1.34
73462.2	63.1	1.32
73466.2	62.4	1.31
73470.2	62.8	1.32
73474.2	63.8	1.34
73478.2	64.8	1.36
73482.2	66.9	1.40
73486.2	70.0	1.47
73490.2	72.7	1.53
73494.2	73.8	1.55
73498.2	74.3	1.56
73502.2	74.9	1.57
73506.2	75.7	1.59
73510.2	76.6	1.61
73514.2	75.8	1.59
73518.2	74.0	1.55
73522.2	72.8	1.53
73526.2	72.2	1.52
73530.2	71.4	1.50
73534.2	71.4	1.50
73538.2	71.8	1.51
73542.2	72.0	1.51
73546.2	71.9	1.51
73550.2	71.7	1.51
73554.2	71.5	1.50
73558.2	71.5	1.50
73562.2	72.2	1.52
73566.2	74.0	1.55
73570.2	76.1	1.60
73574.2	76.9	1.61
73578.2	76.4	1.60
73582.2	76.1	1.60
73586.2	75.7	1.59
73590.2	75.1	1.58
73594.2	73.6	1.55
73598.2	70.6	1.48
73602.2	67.2	1.41
73606.2	65.6	1.38
73610.2	65.4	1.37
73614.2	65.4	1.37
73618.2	65.7	1.38
73622.2	65.7	1.38
73626.2	65.7	1.38
73630.2	65.9	1.38
73634.2	66.2	1.39
73638.2	66.7	1.40
73642.2	66.4	1.40
73646.2	65.7	1.38
73650.2	65.3	1.37
73654.2	65.0	1.36
73658.2	64.4	1.35
73662.2	64.0	1.34
73666.2	63.6	1.34
73670.2	63.0	1.32
73674.2	62.2	1.31
73678.2	61.7	1.29
73682.2	61.5	1.29
73686.2	61.3	1.29
73690.2	60.6	1.27
73694.2	59.7	1.25
73698.2	59.0	1.24
73702.2	58.5	1.23
73706.2	58.2	1.22
73710.2	58.3	1.22
73714.2	58.2	1.22
73718.2	57.6	1.21
73722.2	57.4	1.21
73726.2	57.9	1.22
73730.2	57.9	1.22
73734.2	57.0	1.20
73738.2	55.7	1.17
73742.2	54.0	1.13
73746.2	50.8	1.07
73750.2	48.4	1.02
73754.2	48.6	1.02
73758.2	48.8	1.02
73762.2	47.7	1.00
73766.2	47.2	1.00
73770.1	48.2	1.01
73774.2	50.3	1.06
73778.2	50.0	1.05
73782.1	46.2	1.00
73786.2	43.5	1.00
73790.2	43.2	1.00
73794.2	43.3	1.00
73798.2	44.0	1.00
73802.2	44.8	1.00
73806.2	45.4	1.00
73810.2	45.9	1.00
73814.2	46.1	1.00
73818.2	45.7	1.00
73822.2	45.6	1.00
73826.2	45.8	1.00
73830.1	45.9	1.00
73834.1	46.7	1.00
73838.1	48.7	1.02
73842.1	51.4	1.08
73846.1	53.3	1.12
73850.1	54.0	1.13
73854.1	56.3	1.18
73858.1	59.8	1.26
73862.2	61.1	1.28
73866.1	60.4	1.27
73870.1	59.3	1.25
73874.1	58.5	1.23
73878.1	58.1	1.22
73882.1	57.8	1.21
73886.1	57.7	1.21
73890.1	57.7	1.21
73894.1	58.0	1.22
73898.1	57.5	1.21
73902.1	56.7	1.19
73906.1	56.2	1.18
73910.1	55.7	1.17
73914.1	54.8	1.15
73918.1	53.7	1.13
73922.1	52.9	1.11
73926.1	52.4	1.10
73930.1	52.2	1.10
73934.1	52.2	1.10
73938.1	51.8	1.09
73942.2	51.3	1.08
73946.1	50.5	1.06
73950.1	49.7	1.04
73954.1	49.3	1.04
73958.1	49.0	1.03
73962.1	48.8	1.02
73966.1	48.8	1.02
73970.1	48.0	1.01
73974.1	45.7	1.00
73978.1	41.8	1.00
73982.1	38.9	1.00
73986.1	37.5	1.00
73990.1	36.4	1.00
73994.1	35.9	1.00
73998.1	35.9	1.00
74002.1	35.9	1.00
74006.1	35.9	1.00
74010.1	35.9	1.00
74014.1	35.7	1.00
74018.1	35.7	1.00
74022.1	35.5	1.00
74026.1	35.1	1.00
74030.1	35.1	1.00
74034.1	35.4	1.00
74038.1	35.3	1.00
74042.1	35.0	1.00
74046.1	35.0	1.00
74050.1	35.1	1.00
74054.1	34.9	1.00
74058.1	34.5	1.00
74062.1	34.5	1.00
74066.1	34.7	1.00
74070.1	34.8	1.00
74074.1	34.9	1.00
74078.1	34.9	1.00
74082.1	35.1	1.00
74086.1	35.4	1.00
74090.1	35.6	1.00
74094.1	35.4	1.00
74098.1	35.4	1.00
74102.1	35.6	1.00
74106.1	35.9	1.00
74110.1	36.0	1.00
74114.1	36.0	1.00
74118.1	36.0	1.00
74122.1	35.8	1.00
74126.1	35.5	1.00
74130.1	35.3	1.00
74134.1	35.3	1.00
74138.1	35.4	1.00
74142.1	35.5	1.00
74146.1	35.5	1.00
74150.1	35.6	1.00
74154.1	35.6	1.00
74158.1	35.7	1.00
74162.1	35.6	1.00
74166.1	35.6	1.00
74170.1	35.6	1.00
74174.1	35.6	1.00
74178.1	35.5	1.00
74182.1	35.4	1.00
74186.1	35.2	1.00
74190.1	35.3	1.00
74194.1	35.3	1.00
74198.1	35.3	1.00
74202.1	35.2	1.00
74206.1	35.2	1.00
74210.1	35.2	1.00
74214.1	35.3	1.00
74218.1	35.4	1.00
74222.1	35.3	1.00
74226.1	35.3	1.00
74230.1	35.3	1.00
74234.1	35.3	1.00
74238.1	35.4	1.00
74242.1	35.4	1.00
74246.1	35.7	1.00
74250.1	35.9	1.00
74254.1	35.8	1.00
74258.1	35.6	1.00
74262.1	35.4	1.00
74266.1	35.4	1.00
74270.1	35.7	1.00
74274.1	36.3	1.00
74278.1	36.7	1.00
74282.1	36.8	1.00
74286.1	37.0	1.00
74290.1	37.1	1.00
74294.1	37.0	1.00
74298.1	36.6	1.00
74302.1	36.2	1.00
74306.1	36.0	1.00
74310.1	36.0	1.00
74314.1	35.6	1.00
74318.1	35.0	1.00
74322.1	34.3	1.00
74326.1	33.7	1.00
74330.1	33.3	1.00
74334.1	32.5	1.00
74338.1	31.9	1.00
74342.1	31.7	1.00
74346.1	31.4	1.00
74350.1	31.4	1.00
74354.1	31.1	1.00
74358.1	30.4	1.00
74362.1	30.4	1.00
74366.1	30.9	1.00
74370.1	31.0	1.00
74374.1	30.9	1.00
74378.1	31.3	1.00
74382.1	31.6	1.00
74386.1	31.4	1.00
74390.1	30.8	1.00
74394.1	30.3	1.00
74398.1	30.2	1.00
74402.1	29.8	1.00
74406.1	29.4	1.00
74410.1	29.2	1.00
74414.1	28.9	1.00
74418.0	29.2	1.00
74422.0	29.6	1.00
74426.0	29.7	1.00
74430.1	29.5	1.00
74434.1	29.3	1.00
74438.1	29.2	1.00
74442.1	29.2	1.00
74446.0	29.2	1.00
74450.0	29.0	1.00
74454.0	28.9	1.00
74458.0	28.4	1.00
74462.0	27.7	1.00
74466.0	27.3	1.00
74470.0	27.1	1.00
74474.1	26.9	1.00
74478.0	26.7	1.00
74482.0	26.3	1.00
74486.0	26.0	1.00
74490.0	25.9	1.00
74494.0	26.1	1.00
74498.0	26.1	1.00
74502.0	26.4	1.00
74506.0	26.7	1.00
74510.0	27.0	1.00
74514.0	27.5	1.00
74518.0	27.9	1.00
74522.0	28.4	1.00
74526.0	28.9	1.00
74530.0	29.0	1.00
74534.0	28.8	1.00
74538.0	28.4	1.00
74542.0	28.2	1.00
74546.0	28.1	1.00
74550.0	27.8	1.00
74554.1	27.8	1.00
74558.0	27.8	1.00
74562.0	27.7	1.00
74566.0	27.8	1.00
74570.0	28.2	1.00
74574.0	28.7	1.00
74578.0	28.9	1.00
74582.0	29.0	1.00
74586.0	29.2	1.00
74590.0	28.9	1.00
74594.0	27.9	1.00
74598.1	27.8	1.00
74602.0	28.3	1.00
74606.0	28.6	1.00
74610.0	29.0	1.00
74614.0	28.2	1.00
74618.1	28.2	1.00
